theta,intensity
5.0000,4.469
5.0400,4.346
5.0800,4.341
5.1200,4.367
5.1600,4.565
5.2000,4.440
5.2400,4.417
5.2800,4.314
5.3200,4.316
5.3600,4.372
5.4000,4.259
5.4400,4.282
5.4800,4.264
5.5200,4.196
5.5600,4.221
5.6000,4.210
5.6400,4.005
5.6800,4.037
5.7200,4.280
5.7600,4.076
5.8000,4.160
5.8400,3.937
5.8800,4.110
5.9200,4.102
5.9600,4.067
6.0000,3.945
6.0400,4.068
6.0800,4.003
6.1200,3.912
6.1600,3.810
6.2000,3.852
6.2400,3.974
6.2800,3.919
6.3200,3.945
6.3600,4.024
6.4000,3.867
6.4400,3.895
6.4800,3.905
6.5200,3.886
6.5600,3.912
6.6000,3.802
6.6400,3.870
6.6800,4.041
6.7200,3.725
6.7600,3.737
6.8000,3.754
6.8400,3.864
6.8800,3.744
6.9200,3.773
6.9600,3.739
7.0000,3.707
7.0400,3.714
7.0800,3.804
7.1200,3.767
7.1600,3.677
7.2000,3.657
7.2400,3.755
7.2800,3.755
7.3200,3.773
7.3600,3.691
7.4000,3.791
7.4400,3.775
7.4800,3.721
7.5200,3.647
7.5600,3.705
7.6000,3.801
7.6400,3.723
7.6800,3.728
7.7200,3.690
7.7600,3.648
7.8000,3.644
7.8400,3.594
7.8800,3.635
7.9200,3.580
7.9600,3.653
8.0000,3.610
8.0400,3.672
8.0800,3.685
8.1200,3.504
8.1600,3.618
8.2000,3.579
8.2400,3.548
8.2800,3.565
8.3200,3.495
8.3600,3.626
8.4000,3.530
8.4400,3.540
8.4800,3.531
8.5200,3.603
8.5600,3.523
8.6000,3.555
8.6400,3.391
8.6800,3.598
8.7200,3.517
8.7600,3.577
8.8000,3.635
8.8400,3.550
8.8800,3.508
8.9200,3.535
8.9600,3.460
9.0000,3.673
9.0400,3.553
9.0800,3.431
9.1200,3.562
9.1600,3.578
9.2000,3.552
9.2400,3.566
9.2800,3.459
9.3200,3.432
9.3600,3.459
9.4000,3.494
9.4400,3.535
9.4800,3.576
9.5200,3.560
9.5600,3.544
9.6000,3.394
9.6400,3.590
9.6800,3.410
9.7200,3.439
9.7600,3.311
9.8000,3.530
9.8400,3.465
9.8800,3.436
9.9200,3.370
9.9600,3.353
10.0000,3.503
10.0400,3.451
10.0800,3.381
10.1200,3.501
10.1600,3.431
10.2000,3.415
10.2400,3.503
10.2800,3.414
10.3200,3.371
10.3600,3.357
10.4000,3.274
10.4400,3.369
10.4800,3.481
10.5200,3.337
10.5600,3.359
10.6000,3.432
10.6400,3.343
10.6800,3.445
10.7200,3.337
10.7600,3.307
10.8000,3.463
10.8400,3.311
10.8800,3.382
10.9200,3.410
10.9600,3.309
11.0000,3.330
11.0400,3.240
11.0800,3.235
11.1200,3.346
11.1600,3.422
11.2000,3.218
11.2400,3.278
11.2800,3.197
11.3200,3.233
11.3600,3.338
11.4000,3.344
11.4400,3.276
11.4800,3.333
11.5200,3.304
11.5600,3.247
11.6000,3.218
11.6400,3.246
11.6800,3.345
11.7200,3.322
11.7600,3.303
11.8000,3.199
11.8400,3.245
11.8800,3.173
11.9200,3.152
11.9600,3.293
12.0000,3.239
12.0400,3.109
12.0800,3.219
12.1200,3.091
12.1600,3.192
12.2000,3.210
12.2400,3.274
12.2800,3.099
12.3200,3.156
12.3600,3.180
12.4000,3.185
12.4400,3.312
12.4800,3.266
12.5200,3.310
12.5600,3.279
12.6000,3.194
12.6400,3.142
12.6800,3.297
12.7200,3.258
12.7600,3.202
12.8000,3.219
12.8400,3.282
12.8800,3.254
12.9200,3.161
12.9600,3.123
13.0000,3.173
13.0400,3.257
13.0800,3.020
13.1200,3.100
13.1600,3.154
13.2000,3.197
13.2400,3.194
13.2800,3.043
13.3200,3.059
13.3600,3.197
13.4000,3.144
13.4400,3.105
13.4800,3.088
13.5200,3.181
13.5600,3.165
13.6000,3.092
13.6400,3.122
13.6800,3.127
13.7200,3.075
13.7600,3.064
13.8000,2.991
13.8400,3.079
13.8800,3.145
13.9200,3.006
13.9600,3.084
14.0000,3.090
14.0400,3.155
14.0800,3.085
14.1200,3.099
14.1600,3.008
14.2000,3.050
14.2400,3.069
14.2800,2.980
14.3200,3.021
14.3600,3.081
14.4000,3.071
14.4400,3.060
14.4800,3.021
14.5200,3.152
14.5600,3.029
14.6000,3.006
14.6400,2.991
14.6800,3.066
14.7200,2.947
14.7600,3.000
14.8000,3.029
14.8400,2.930
14.8800,2.991
14.9200,2.979
14.9600,2.979
15.0000,2.885
15.0400,3.063
15.0800,2.998
15.1200,3.037
15.1600,2.993
15.2000,3.038
15.2400,2.974
15.2800,3.040
15.3200,3.031
15.3600,3.055
15.4000,2.927
15.4400,3.023
15.4800,2.919
15.5200,2.930
15.5600,2.911
15.6000,3.012
15.6400,3.039
15.6800,2.976
15.7200,2.920
15.7600,2.962
15.8000,2.960
15.8400,2.988
15.8800,2.873
15.9200,3.025
15.9600,2.921
16.0000,2.864
16.0400,2.911
16.0800,2.898
16.1200,2.937
16.1600,2.828
16.2000,2.846
16.2400,2.892
16.2800,2.930
16.3200,2.913
16.3600,2.920
16.4000,2.864
16.4400,2.780
16.4800,2.872
16.5200,2.822
16.5600,2.858
16.6000,2.891
16.6400,2.865
16.6800,2.955
16.7200,2.833
16.7600,2.762
16.8000,2.823
16.8400,2.832
16.8800,2.917
16.9200,2.873
16.9600,2.802
17.0000,2.878
17.0400,2.805
17.0800,2.883
17.1200,2.744
17.1600,2.884
17.2000,2.780
17.2400,2.770
17.2800,2.733
17.3200,2.767
17.3600,2.732
17.4000,2.782
17.4400,2.892
17.4800,2.745
17.5200,2.821
17.5600,2.783
17.6000,2.660
17.6400,2.724
17.6800,2.653
17.7200,2.737
17.7600,2.755
17.8000,2.706
17.8400,2.741
17.8800,2.690
17.9200,2.730
17.9600,2.749
18.0000,2.677
18.0400,2.744
18.0800,2.740
18.1200,2.921
18.1600,2.671
18.2000,2.743
18.2400,2.687
18.2800,2.694
18.3200,2.705
18.3600,2.744
18.4000,2.645
18.4400,2.672
18.4800,2.678
18.5200,2.755
18.5600,2.634
18.6000,2.676
18.6400,2.648
18.6800,2.690
18.7200,2.734
18.7600,2.628
18.8000,2.689
18.8400,2.628
18.8800,2.589
18.9200,2.725
18.9600,2.669
19.0000,2.564
19.0400,2.594
19.0800,2.614
19.1200,2.655
19.1600,2.614
19.2000,2.591
19.2400,2.607
19.2800,2.626
19.3200,2.732
19.3600,2.643
19.4000,2.580
19.4400,2.638
19.4800,2.565
19.5200,2.640
19.5600,2.483
19.6000,2.589
19.6400,2.677
19.6800,2.449
19.7200,2.553
19.7600,2.639
19.8000,2.505
19.8400,2.597
19.8800,2.516
19.9200,2.601
19.9600,2.426
20.0000,2.545
20.0400,2.519
20.0800,2.554
20.1200,2.568
20.1600,2.584
20.2000,2.618
20.2400,2.439
20.2800,2.482
20.3200,2.527
20.3600,2.548
20.4000,2.473
20.4400,2.527
20.4800,2.504
20.5200,2.566
20.5600,2.540
20.6000,2.605
20.6400,2.431
20.6800,2.520
20.7200,2.578
20.7600,2.425
20.8000,2.555
20.8400,2.533
20.8800,2.452
20.9200,2.390
20.9600,2.477
21.0000,2.468
21.0400,2.456
21.0800,2.575
21.1200,2.559
21.1600,2.527
21.2000,2.472
21.2400,2.489
21.2800,2.437
21.3200,2.504
21.3600,2.432
21.4000,2.449
21.4400,2.434
21.4800,2.424
21.5200,2.387
21.5600,2.465
21.6000,2.331
21.6400,2.403
21.6800,2.434
21.7200,2.458
21.7600,2.505
21.8000,2.397
21.8400,2.336
21.8800,2.376
21.9200,2.464
21.9600,2.402
22.0000,2.422
22.0400,2.298
22.0800,2.289
22.1200,2.419
22.1600,2.318
22.2000,2.323
22.2400,2.363
22.2800,2.452
22.3200,2.447
22.3600,2.339
22.4000,2.444
22.4400,2.371
22.4800,2.444
22.5200,2.316
22.5600,2.425
22.6000,2.313
22.6400,2.360
22.6800,2.261
22.7200,2.338
22.7600,2.456
22.8000,2.421
22.8400,2.426
22.8800,2.390
22.9200,2.274
22.9600,2.315
23.0000,2.339
23.0400,2.269
23.0800,2.324
23.1200,2.280
23.1600,2.315
23.2000,2.345
23.2400,2.389
23.2800,2.368
23.3200,2.171
23.3600,2.387
23.4000,2.286
23.4400,2.299
23.4800,2.272
23.5200,2.198
23.5600,2.400
23.6000,2.274
23.6400,2.198
23.6800,2.266
23.7200,2.316
23.7600,2.187
23.8000,2.203
23.8400,2.322
23.8800,2.341
23.9200,2.256
23.9600,2.296
24.0000,2.257
24.0400,2.236
24.0800,2.252
24.1200,2.277
24.1600,2.279
24.2000,2.205
24.2400,2.167
24.2800,2.281
24.3200,2.197
24.3600,2.260
24.4000,2.305
24.4400,2.214
24.4800,2.161
24.5200,2.164
24.5600,2.212
24.6000,2.123
24.6400,2.195
24.6800,2.183
24.7200,2.206
24.7600,2.237
24.8000,2.138
24.8400,2.147
24.8800,2.218
24.9200,2.136
24.9600,2.194
25.0000,2.140
25.0400,2.227
25.0800,2.138
25.1200,2.214
25.1600,2.231
25.2000,2.156
25.2400,2.155
25.2800,2.140
25.3200,2.100
25.3600,2.074
25.4000,2.145
25.4400,2.175
25.4800,2.089
25.5200,2.144
25.5600,2.182
25.6000,2.148
25.6400,2.114
25.6800,2.046
25.7200,2.114
25.7600,2.124
25.8000,2.188
25.8400,2.104
25.8800,2.121
25.9200,2.259
25.9600,2.065
26.0000,2.131
26.0400,2.079
26.0800,2.170
26.1200,2.019
26.1600,2.136
26.2000,2.126
26.2400,2.089
26.2800,2.077
26.3200,2.126
26.3600,2.143
26.4000,2.089
26.4400,2.074
26.4800,2.053
26.5200,2.146
26.5600,2.035
26.6000,2.090
26.6400,2.046
26.6800,2.038
26.7200,1.970
26.7600,2.046
26.8000,2.021
26.8400,2.056
26.8800,2.006
26.9200,1.977
26.9600,1.995
27.0000,2.021
27.0400,2.053
27.0800,2.086
27.1200,2.112
27.1600,2.062
27.2000,2.123
27.2400,2.114
27.2800,1.970
27.3200,2.036
27.3600,2.058
27.4000,2.123
27.4400,2.053
27.4800,2.015
27.5200,2.066
27.5600,2.086
27.6000,1.961
27.6400,2.035
27.6800,1.951
27.7200,2.043
27.7600,2.117
27.8000,1.983
27.8400,2.096
27.8800,2.000
27.9200,2.219
27.9600,2.086
28.0000,1.985
28.0400,2.084
28.0800,2.068
28.1200,2.039
28.1600,1.997
28.2000,2.049
28.2400,2.031
28.2800,2.139
28.3200,2.065
28.3600,2.089
28.4000,2.180
28.4400,2.165
28.4800,2.141
28.5200,2.113
28.5600,2.120
28.6000,2.099
28.6400,2.094
28.6800,2.013
28.7200,2.074
28.7600,2.054
28.8000,2.006
28.8400,2.093
28.8800,1.967
28.9200,1.986
28.9600,2.058
29.0000,1.947
29.0400,1.990
29.0800,1.978
29.1200,1.974
29.1600,1.939
29.2000,1.975
29.2400,1.964
29.2800,1.934
29.3200,1.919
29.3600,1.876
29.4000,1.935
29.4400,1.971
29.4800,1.924
29.5200,1.935
29.5600,1.934
29.6000,1.832
29.6400,1.846
29.6800,1.948
29.7200,1.909
29.7600,1.877
29.8000,1.830
29.8400,1.835
29.8800,1.849
29.9200,1.822
29.9600,1.783
30.0000,1.832
30.0400,1.797
30.0800,1.760
30.1200,1.845
30.1600,1.831
30.2000,1.831
30.2400,1.798
30.2800,1.745
30.3200,1.806
30.3600,1.801
30.4000,1.818
30.4400,1.794
30.4800,1.752
30.5200,1.757
30.5600,1.737
30.6000,1.788
30.6400,1.724
30.6800,1.763
30.7200,1.756
30.7600,1.715
30.8000,1.796
30.8400,1.734
30.8800,1.722
30.9200,1.712
30.9600,1.743
31.0000,1.715
31.0400,1.723
31.0800,1.692
31.1200,1.650
31.1600,1.693
31.2000,1.679
31.2400,1.643
31.2800,1.661
31.3200,1.611
31.3600,1.691
31.4000,1.656
31.4400,1.685
31.4800,1.688
31.5200,1.621
31.5600,1.639
31.6000,1.743
31.6400,1.585
31.6800,1.649
31.7200,1.594
31.7600,1.716
31.8000,1.662
31.8400,1.584
31.8800,1.551
31.9200,1.574
31.9600,1.705
32.0000,1.654
32.0400,1.622
32.0800,1.580
32.1200,1.542
32.1600,1.506
32.2000,1.631
32.2400,1.640
32.2800,1.697
32.3200,1.579
32.3600,1.633
32.4000,1.625
32.4400,1.520
32.4800,1.551
32.5200,1.607
32.5600,1.567
32.6000,1.645
32.6400,1.562
32.6800,1.568
32.7200,1.548
32.7600,1.540
32.8000,1.560
32.8400,1.608
32.8800,1.502
32.9200,1.572
32.9600,1.475
33.0000,1.590
33.0400,1.624
33.0800,1.600
33.1200,1.530
33.1600,1.570
33.2000,1.623
33.2400,1.523
33.2800,1.418
33.3200,1.491
33.3600,1.513
33.4000,1.526
33.4400,1.554
33.4800,1.633
33.5200,1.496
33.5600,1.527
33.6000,1.542
33.6400,1.427
33.6800,1.511
33.7200,1.518
33.7600,1.538
33.8000,1.421
33.8400,1.513
33.8800,1.475
33.9200,1.451
33.9600,1.481
34.0000,1.499
34.0400,1.549
34.0800,1.542
34.1200,1.497
34.1600,1.432
34.2000,1.401
34.2400,1.548
34.2800,1.458
34.3200,1.481
34.3600,1.451
34.4000,1.450
34.4400,1.471
34.4800,1.531
34.5200,1.369
34.5600,1.442
34.6000,1.488
34.6400,1.468
34.6800,1.479
34.7200,1.495
34.7600,1.410
34.8000,1.435
34.8400,1.518
34.8800,1.363
34.9200,1.353
34.9600,1.446
35.0000,1.447
35.0400,1.417
35.0800,1.413
35.1200,1.391
35.1600,1.423
35.2000,1.428
35.2400,1.451
35.2800,1.426
35.3200,1.413
35.3600,1.513
35.4000,1.438
35.4400,1.328
35.4800,1.390
35.5200,1.394
35.5600,1.448
35.6000,1.404
35.6400,1.404
35.6800,1.324
35.7200,1.432
35.7600,1.393
35.8000,1.358
35.8400,1.369
35.8800,1.321
35.9200,1.351
35.9600,1.378
36.0000,1.385
36.0400,1.364
36.0800,1.384
36.1200,1.415
36.1600,1.417
36.2000,1.378
36.2400,1.420
36.2800,1.340
36.3200,1.382
36.3600,1.346
36.4000,1.272
36.4400,1.343
36.4800,1.365
36.5200,1.375
36.5600,1.364
36.6000,1.410
36.6400,1.392
36.6800,1.356
36.7200,1.366
36.7600,1.360
36.8000,1.273
36.8400,1.365
36.8800,1.310
36.9200,1.382
36.9600,1.354
37.0000,1.248
37.0400,1.308
37.0800,1.355
37.1200,1.292
37.1600,1.300
37.2000,1.274
37.2400,1.276
37.2800,1.353
37.3200,1.372
37.3600,1.426
37.4000,1.381
37.4400,1.368
37.4800,1.362
37.5200,1.293
37.5600,1.308
37.6000,1.325
37.6400,1.284
37.6800,1.388
37.7200,1.362
37.7600,1.354
37.8000,1.360
37.8400,1.331
37.8800,1.358
37.9200,1.334
37.9600,1.345
38.0000,1.339
38.0400,1.356
38.0800,1.368
38.1200,1.342
38.1600,1.302
38.2000,1.321
38.2400,1.446
38.2800,1.395
38.3200,1.353
38.3600,1.328
38.4000,1.386
38.4400,1.378
38.4800,1.400
38.5200,1.340
38.5600,1.404
38.6000,1.327
38.6400,1.418
38.6800,1.395
38.7200,1.404
38.7600,1.410
38.8000,1.419
38.8400,1.473
38.8800,1.493
38.9200,1.489
38.9600,1.463
39.0000,1.429
39.0400,1.549
39.0800,1.488
39.1200,1.472
39.1600,1.525
39.2000,1.537
39.2400,1.603
39.2800,1.626
39.3200,1.601
39.3600,1.593
39.4000,1.653
39.4400,1.750
39.4800,1.766
39.5200,1.840
39.5600,1.972
39.6000,2.049
39.6400,2.116
39.6800,2.227
39.7200,2.290
39.7600,2.425
39.8000,2.723
39.8400,2.845
39.8800,3.113
39.9200,3.520
39.9600,4.207
40.0000,4.864
40.0400,5.855
40.0800,7.286
40.1200,9.245
40.1600,11.743
40.2000,13.646
40.2400,15.303
40.2800,15.850
40.3200,15.248
40.3600,14.029
40.4000,12.464
40.4400,10.510
40.4800,9.131
40.5200,7.990
40.5600,6.796
40.6000,5.860
40.6400,5.207
40.6800,4.598
40.7200,4.122
40.7600,3.685
40.8000,3.301
40.8400,3.074
40.8800,2.759
40.9200,2.570
40.9600,2.448
41.0000,2.205
41.0400,2.087
41.0800,2.037
41.1200,1.981
41.1600,1.868
41.2000,1.828
41.2400,1.747
41.2800,1.688
41.3200,1.628
41.3600,1.567
41.4000,1.541
41.4400,1.558
41.4800,1.518
41.5200,1.464
41.5600,1.376
41.6000,1.388
41.6400,1.352
41.6800,1.380
41.7200,1.402
41.7600,1.299
41.8000,1.272
41.8400,1.252
41.8800,1.224
41.9200,1.207
41.9600,1.230
42.0000,1.263
42.0400,1.229
42.0800,1.204
42.1200,1.187
42.1600,1.217
42.2000,1.123
42.2400,1.233
42.2800,1.142
42.3200,1.178
42.3600,1.190
42.4000,1.176
42.4400,1.171
42.4800,1.192
42.5200,1.095
42.5600,1.157
42.6000,1.083
42.6400,1.120
42.6800,1.142
42.7200,1.128
42.7600,1.140
42.8000,1.145
42.8400,1.119
42.8800,1.179
42.9200,1.143
42.9600,1.112
43.0000,1.098
43.0400,1.146
43.0800,1.131
43.1200,1.118
43.1600,1.125
43.2000,1.033
43.2400,1.070
43.2800,1.027
43.3200,1.063
43.3600,1.087
43.4000,1.040
43.4400,1.091
43.4800,1.055
43.5200,1.085
43.5600,1.039
43.6000,1.060
43.6400,1.049
43.6800,1.081
43.7200,1.107
43.7600,1.044
43.8000,1.037
43.8400,1.078
43.8800,1.040
43.9200,1.037
43.9600,1.044
44.0000,1.145
44.0400,1.060
44.0800,1.036
44.1200,1.028
44.1600,1.114
44.2000,1.053
44.2400,1.068
44.2800,0.996
44.3200,1.068
44.3600,1.067
44.4000,0.988
44.4400,1.015
44.4800,1.044
44.5200,1.055
44.5600,1.037
44.6000,1.013
44.6400,1.023
44.6800,1.051
44.7200,1.039
44.7600,1.047
44.8000,1.051
44.8400,0.980
44.8800,1.048
44.9200,1.099
44.9600,1.086
45.0000,1.104
45.0400,1.107
45.0800,1.049
45.1200,1.023
45.1600,1.115
45.2000,1.082
45.2400,1.073
45.2800,1.120
45.3200,1.112
45.3600,1.019
45.4000,1.070
45.4400,1.162
45.4800,1.109
45.5200,1.086
45.5600,1.082
45.6000,1.113
45.6400,1.130
45.6800,1.125
45.7200,1.145
45.7600,1.173
45.8000,1.189
45.8400,1.146
45.8800,1.258
45.9200,1.218
45.9600,1.284
46.0000,1.330
46.0400,1.386
46.0800,1.355
46.1200,1.403
46.1600,1.521
46.2000,1.497
46.2400,1.628
46.2800,1.707
46.3200,1.792
46.3600,1.863
46.4000,1.969
46.4400,2.211
46.4800,2.366
46.5200,2.538
46.5600,2.894
46.6000,3.309
46.6400,3.614
46.6800,4.195
46.7200,4.760
46.7600,5.204
46.8000,5.420
46.8400,5.645
46.8800,5.714
46.9200,5.335
46.9600,4.943
47.0000,4.495
47.0400,4.219
47.0800,3.726
47.1200,3.302
47.1600,3.158
47.2000,2.949
47.2400,2.628
47.2800,2.374
47.3200,2.153
47.3600,2.011
47.4000,1.957
47.4400,1.801
47.4800,1.785
47.5200,1.631
47.5600,1.509
47.6000,1.423
47.6400,1.376
47.6800,1.336
47.7200,1.327
47.7600,1.236
47.8000,1.247
47.8400,1.164
47.8800,1.147
47.9200,1.129
47.9600,1.055
48.0000,1.115
48.0400,1.018
48.0800,1.021
48.1200,1.032
48.1600,1.018
48.2000,1.005
48.2400,0.962
48.2800,0.962
48.3200,0.954
48.3600,0.975
48.4000,0.976
48.4400,0.895
48.4800,0.933
48.5200,0.905
48.5600,0.898
48.6000,0.922
48.6400,0.938
48.6800,0.919
48.7200,0.858
48.7600,0.807
48.8000,0.865
48.8400,0.858
48.8800,0.854
48.9200,0.842
48.9600,0.848
49.0000,0.864
49.0400,0.856
49.0800,0.835
49.1200,0.809
49.1600,0.837
49.2000,0.823
49.2400,0.840
49.2800,0.828
49.3200,0.751
49.3600,0.768
49.4000,0.812
49.4400,0.789
49.4800,0.711
49.5200,0.789
49.5600,0.801
49.6000,0.747
49.6400,0.780
49.6800,0.807
49.7200,0.830
49.7600,0.801
49.8000,0.753
49.8400,0.761
49.8800,0.784
49.9200,0.771
49.9600,0.799
50.0000,0.801
50.0400,0.724
50.0800,0.730
50.1200,0.752
50.1600,0.763
50.2000,0.728
50.2400,0.757
50.2800,0.779
50.3200,0.759
50.3600,0.753
50.4000,0.755
50.4400,0.697
50.4800,0.757
50.5200,0.757
50.5600,0.733
50.6000,0.788
50.6400,0.732
50.6800,0.716
50.7200,0.738
50.7600,0.743
50.8000,0.771
50.8400,0.714
50.8800,0.757
50.9200,0.691
50.9600,0.737
51.0000,0.694
51.0400,0.715
51.0800,0.685
51.1200,0.744
51.1600,0.744
51.2000,0.710
51.2400,0.728
51.2800,0.710
51.3200,0.748
51.3600,0.702
51.4000,0.746
51.4400,0.700
51.4800,0.731
51.5200,0.711
51.5600,0.686
51.6000,0.671
51.6400,0.716
51.6800,0.719
51.7200,0.681
51.7600,0.682
51.8000,0.725
51.8400,0.670
51.8800,0.722
51.9200,0.651
51.9600,0.677
52.0000,0.688
52.0400,0.726
52.0800,0.681
52.1200,0.699
52.1600,0.736
52.2000,0.748
52.2400,0.712
52.2800,0.663
52.3200,0.649
52.3600,0.662
52.4000,0.656
52.4400,0.704
52.4800,0.674
52.5200,0.682
52.5600,0.654
52.6000,0.655
52.6400,0.655
52.6800,0.679
52.7200,0.671
52.7600,0.693
52.8000,0.669
52.8400,0.676
52.8800,0.671
52.9200,0.709
52.9600,0.633
53.0000,0.671
53.0400,0.707
53.0800,0.685
53.1200,0.678
53.1600,0.620
53.2000,0.673
53.2400,0.636
53.2800,0.705
53.3200,0.646
53.3600,0.647
53.4000,0.621
53.4400,0.577
53.4800,0.592
53.5200,0.646
53.5600,0.701
53.6000,0.662
53.6400,0.643
53.6800,0.636
53.7200,0.638
53.7600,0.657
53.8000,0.707
53.8400,0.637
53.8800,0.640
53.9200,0.696
53.9600,0.636
54.0000,0.669
54.0400,0.595
54.0800,0.658
54.1200,0.620
54.1600,0.635
54.2000,0.647
54.2400,0.640
54.2800,0.643
54.3200,0.684
54.3600,0.627
54.4000,0.633
54.4400,0.662
54.4800,0.660
54.5200,0.648
54.5600,0.626
54.6000,0.646
54.6400,0.663
54.6800,0.626
54.7200,0.618
54.7600,0.643
54.8000,0.611
54.8400,0.611
54.8800,0.624
54.9200,0.610
54.9600,0.619
55.0000,0.601
55.0400,0.617
55.0800,0.613
55.1200,0.626
55.1600,0.552
55.2000,0.579
55.2400,0.602
55.2800,0.643
55.3200,0.573
55.3600,0.591
55.4000,0.580
55.4400,0.600
55.4800,0.626
55.5200,0.620
55.5600,0.617
55.6000,0.626
55.6400,0.558
55.6800,0.569
55.7200,0.585
55.7600,0.575
55.8000,0.589
55.8400,0.593
55.8800,0.640
55.9200,0.563
55.9600,0.576
56.0000,0.576
56.0400,0.577
56.0800,0.556
56.1200,0.543
56.1600,0.578
56.2000,0.578
56.2400,0.611
56.2800,0.589
56.3200,0.591
56.3600,0.582
56.4000,0.598
56.4400,0.581
56.4800,0.613
56.5200,0.621
56.5600,0.580
56.6000,0.569
56.6400,0.591
56.6800,0.582
56.7200,0.564
56.7600,0.584
56.8000,0.587
56.8400,0.595
56.8800,0.560
56.9200,0.607
56.9600,0.587
57.0000,0.570
57.0400,0.600
57.0800,0.574
57.1200,0.532
57.1600,0.619
57.2000,0.588
57.2400,0.583
57.2800,0.574
57.3200,0.573
57.3600,0.573
57.4000,0.565
57.4400,0.595
57.4800,0.600
57.5200,0.554
57.5600,0.557
57.6000,0.549
57.6400,0.539
57.6800,0.544
57.7200,0.562
57.7600,0.551
57.8000,0.591
57.8400,0.498
57.8800,0.569
57.9200,0.554
57.9600,0.581
58.0000,0.561
58.0400,0.534
58.0800,0.535
58.1200,0.541
58.1600,0.520
58.2000,0.518
58.2400,0.516
58.2800,0.554
58.3200,0.528
58.3600,0.587
58.4000,0.557
58.4400,0.577
58.4800,0.557
58.5200,0.496
58.5600,0.533
58.6000,0.507
58.6400,0.614
58.6800,0.551
58.7200,0.534
58.7600,0.503
58.8000,0.533
58.8400,0.518
58.8800,0.535
58.9200,0.513
58.9600,0.539
59.0000,0.537
59.0400,0.557
59.0800,0.567
59.1200,0.509
59.1600,0.537
59.2000,0.547
59.2400,0.511
59.2800,0.542
59.3200,0.511
59.3600,0.518
59.4000,0.530
59.4400,0.515
59.4800,0.530
59.5200,0.480
59.5600,0.503
59.6000,0.494
59.6400,0.504
59.6800,0.533
59.7200,0.554
59.7600,0.518
59.8000,0.517
59.8400,0.530
59.8800,0.487
59.9200,0.485
59.9600,0.555
60.0000,0.558
60.0400,0.511
60.0800,0.521
60.1200,0.535
60.1600,0.496
60.2000,0.488
60.2400,0.521
60.2800,0.541
60.3200,0.515
60.3600,0.527
60.4000,0.489
60.4400,0.486
60.4800,0.494
60.5200,0.473
60.5600,0.507
60.6000,0.506
60.6400,0.475
60.6800,0.496
60.7200,0.467
60.7600,0.505
60.8000,0.496
60.8400,0.488
60.8800,0.492
60.9200,0.506
60.9600,0.482
61.0000,0.501
61.0400,0.492
61.0800,0.429
61.1200,0.463
61.1600,0.463
61.2000,0.509
61.2400,0.479
61.2800,0.470
61.3200,0.479
61.3600,0.464
61.4000,0.497
61.4400,0.458
61.4800,0.455
61.5200,0.450
61.5600,0.480
61.6000,0.479
61.6400,0.479
61.6800,0.470
61.7200,0.447
61.7600,0.470
61.8000,0.473
61.8400,0.432
61.8800,0.460
61.9200,0.494
61.9600,0.480
62.0000,0.470
62.0400,0.433
62.0800,0.455
62.1200,0.419
62.1600,0.446
62.2000,0.436
62.2400,0.440
62.2800,0.443
62.3200,0.465
62.3600,0.478
62.4000,0.465
62.4400,0.488
62.4800,0.460
62.5200,0.479
62.5600,0.446
62.6000,0.435
62.6400,0.461
62.6800,0.418
62.7200,0.450
62.7600,0.437
62.8000,0.423
62.8400,0.455
62.8800,0.429
62.9200,0.445
62.9600,0.433
63.0000,0.426
63.0400,0.471
63.0800,0.424
63.1200,0.466
63.1600,0.447
63.2000,0.472
63.2400,0.441
63.2800,0.443
63.3200,0.456
63.3600,0.456
63.4000,0.454
63.4400,0.468
63.4800,0.434
63.5200,0.439
63.5600,0.422
63.6000,0.424
63.6400,0.447
63.6800,0.411
63.7200,0.469
63.7600,0.445
63.8000,0.433
63.8400,0.426
63.8800,0.434
63.9200,0.412
63.9600,0.443
64.0000,0.431
64.0400,0.423
64.0800,0.414
64.1200,0.465
64.1600,0.414
64.2000,0.424
64.2400,0.425
64.2800,0.390
64.3200,0.426
64.3600,0.421
64.4000,0.407
64.4400,0.461
64.4800,0.420
64.5200,0.446
64.5600,0.446
64.6000,0.460
64.6400,0.453
64.6800,0.417
64.7200,0.442
64.7600,0.437
64.8000,0.399
64.8400,0.424
64.8800,0.386
64.9200,0.411
64.9600,0.367
65.0000,0.430
65.0400,0.415
65.0800,0.419
65.1200,0.414
65.1600,0.391
65.2000,0.452
65.2400,0.450
65.2800,0.429
65.3200,0.442
65.3600,0.418
65.4000,0.443
65.4400,0.426
65.4800,0.403
65.5200,0.430
65.5600,0.411
65.6000,0.458
65.6400,0.441
65.6800,0.405
65.7200,0.466
65.7600,0.439
65.8000,0.467
65.8400,0.417
65.8800,0.463
65.9200,0.422
65.9600,0.432
66.0000,0.399
66.0400,0.439
66.0800,0.406
66.1200,0.441
66.1600,0.450
66.2000,0.418
66.2400,0.460
66.2800,0.408
66.3200,0.421
66.3600,0.437
66.4000,0.446
66.4400,0.453
66.4800,0.394
66.5200,0.409
66.5600,0.431
66.6000,0.444
66.6400,0.483
66.6800,0.441
66.7200,0.436
66.7600,0.459
66.8000,0.447
66.8400,0.472
66.8800,0.436
66.9200,0.435
66.9600,0.504
67.0000,0.465
67.0400,0.498
67.0800,0.469
67.1200,0.472
67.1600,0.466
67.2000,0.467
67.2400,0.504
67.2800,0.479
67.3200,0.474
67.3600,0.502
67.4000,0.530
67.4400,0.531
67.4800,0.546
67.5200,0.552
67.5600,0.610
67.6000,0.616
67.6400,0.636
67.6800,0.670
67.7200,0.630
67.7600,0.648
67.8000,0.667
67.8400,0.754
67.8800,0.850
67.9200,0.886
67.9600,1.000
68.0000,1.061
68.0400,1.176
68.0800,1.246
68.1200,1.417
68.1600,1.615
68.2000,1.859
68.2400,2.192
68.2800,2.310
68.3200,2.434
68.3600,2.492
68.4000,2.552
68.4400,2.509
68.4800,2.416
68.5200,2.466
68.5600,2.197
68.6000,2.158
68.6400,1.945
68.6800,1.792
68.7200,1.616
68.7600,1.502
68.8000,1.406
68.8400,1.232
68.8800,1.154
68.9200,1.087
68.9600,1.037
69.0000,0.990
69.0400,0.934
69.0800,0.867
69.1200,0.816
69.1600,0.762
69.2000,0.727
69.2400,0.728
69.2800,0.645
69.3200,0.680
69.3600,0.671
69.4000,0.606
69.4400,0.572
69.4800,0.561
69.5200,0.574
69.5600,0.558
69.6000,0.527
69.6400,0.527
69.6800,0.481
69.7200,0.508
69.7600,0.491
69.8000,0.452
69.8400,0.418
69.8800,0.456
69.9200,0.481
69.9600,0.476
70.0000,0.467
70.0400,0.430
70.0800,0.462
70.1200,0.461
70.1600,0.406
70.2000,0.419
70.2400,0.391
70.2800,0.435
70.3200,0.401
70.3600,0.407
70.4000,0.382
70.4400,0.367
70.4800,0.387
70.5200,0.404
70.5600,0.390
70.6000,0.377
70.6400,0.404
70.6800,0.348
70.7200,0.371
70.7600,0.361
70.8000,0.417
70.8400,0.369
70.8800,0.350
70.9200,0.337
70.9600,0.323
71.0000,0.347
71.0400,0.374
71.0800,0.366
71.1200,0.352
71.1600,0.322
71.2000,0.380
71.2400,0.314
71.2800,0.338
71.3200,0.372
71.3600,0.311
71.4000,0.344
71.4400,0.372
71.4800,0.312
71.5200,0.337
71.5600,0.311
71.6000,0.356
71.6400,0.318
71.6800,0.325
71.7200,0.347
71.7600,0.314
71.8000,0.363
71.8400,0.321
71.8800,0.300
71.9200,0.317
71.9600,0.353
72.0000,0.337
72.0400,0.345
72.0800,0.344
72.1200,0.314
72.1600,0.340
72.2000,0.353
72.2400,0.379
72.2800,0.341
72.3200,0.330
72.3600,0.338
72.4000,0.351
72.4400,0.308
72.4800,0.342
72.5200,0.322
72.5600,0.317
72.6000,0.321
72.6400,0.319
72.6800,0.315
72.7200,0.298
72.7600,0.358
72.8000,0.307
72.8400,0.325
72.8800,0.296
72.9200,0.316
72.9600,0.346
73.0000,0.341
73.0400,0.347
73.0800,0.319
73.1200,0.309
73.1600,0.298
73.2000,0.296
73.2400,0.315
73.2800,0.332
73.3200,0.329
73.3600,0.320
73.4000,0.361
73.4400,0.368
73.4800,0.342
73.5200,0.315
73.5600,0.306
73.6000,0.296
73.6400,0.308
73.6800,0.268
73.7200,0.331
73.7600,0.293
73.8000,0.316
73.8400,0.302
73.8800,0.283
73.9200,0.357
73.9600,0.316
74.0000,0.292
74.0400,0.292
74.0800,0.282
74.1200,0.304
74.1600,0.280
74.2000,0.283
74.2400,0.330
74.2800,0.327
74.3200,0.312
74.3600,0.305
74.4000,0.282
74.4400,0.314
74.4800,0.313
74.5200,0.301
74.5600,0.296
74.6000,0.307
74.6400,0.311
74.6800,0.302
74.7200,0.317
74.7600,0.296
74.8000,0.298
74.8400,0.340
74.8800,0.311
74.9200,0.276
74.9600,0.284
75.0000,0.299
75.0400,0.312
75.0800,0.301
75.1200,0.290
75.1600,0.308
75.2000,0.262
75.2400,0.313
75.2800,0.310
75.3200,0.308
75.3600,0.300
75.4000,0.313
75.4400,0.349
75.4800,0.297
75.5200,0.295
75.5600,0.293
75.6000,0.319
75.6400,0.285
75.6800,0.313
75.7200,0.309
75.7600,0.286
75.8000,0.288
75.8400,0.272
75.8800,0.321
75.9200,0.289
75.9600,0.302
76.0000,0.290
76.0400,0.278
76.0800,0.279
76.1200,0.307
76.1600,0.294
76.2000,0.286
76.2400,0.312
76.2800,0.325
76.3200,0.308
76.3600,0.317
76.4000,0.286
76.4400,0.271
76.4800,0.269
76.5200,0.294
76.5600,0.305
76.6000,0.266
76.6400,0.314
76.6800,0.298
76.7200,0.308
76.7600,0.284
76.8000,0.283
76.8400,0.251
76.8800,0.268
76.9200,0.267
76.9600,0.287
77.0000,0.283
77.0400,0.297
77.0800,0.304
77.1200,0.285
77.1600,0.289
77.2000,0.271
77.2400,0.286
77.2800,0.296
77.3200,0.290
77.3600,0.290
77.4000,0.317
77.4400,0.288
77.4800,0.300
77.5200,0.275
77.5600,0.295
77.6000,0.303
77.6400,0.281
77.6800,0.307
77.7200,0.304
77.7600,0.284
77.8000,0.320
77.8400,0.314
77.8800,0.253
77.9200,0.291
77.9600,0.295
78.0000,0.312
78.0400,0.294
78.0800,0.304
78.1200,0.300
78.1600,0.320
78.2000,0.266
78.2400,0.286
78.2800,0.316
78.3200,0.315
78.3600,0.295
78.4000,0.290
78.4400,0.282
78.4800,0.289
78.5200,0.269
78.5600,0.251
78.6000,0.297
78.6400,0.292
78.6800,0.274
78.7200,0.280
78.7600,0.294
78.8000,0.306
78.8400,0.257
78.8800,0.280
78.9200,0.292
78.9600,0.336
79.0000,0.301
79.0400,0.277
79.0800,0.307
79.1200,0.297
79.1600,0.263
79.2000,0.301
79.2400,0.301
79.2800,0.240
79.3200,0.280
79.3600,0.304
79.4000,0.309
79.4400,0.318
79.4800,0.284
79.5200,0.328
79.5600,0.320
79.6000,0.312
79.6400,0.310
79.6800,0.288
79.7200,0.309
79.7600,0.319
79.8000,0.287
79.8400,0.281
79.8800,0.342
79.9200,0.320
79.9600,0.339
80.0000,0.304
