theta,intensity
5.0000,5.223
5.0400,5.124
5.0800,5.165
5.1200,5.079
5.1600,5.144
5.2000,5.157
5.2400,5.039
5.2800,5.039
5.3200,5.036
5.3600,4.925
5.4000,4.952
5.4400,4.999
5.4800,4.817
5.5200,4.876
5.5600,4.833
5.6000,4.787
5.6400,4.706
5.6800,4.755
5.7200,4.704
5.7600,4.528
5.8000,4.624
5.8400,4.603
5.8800,4.398
5.9200,4.347
5.9600,4.471
6.0000,4.379
6.0400,4.277
6.0800,4.189
6.1200,4.337
6.1600,4.293
6.2000,4.163
6.2400,4.100
6.2800,4.112
6.3200,4.158
6.3600,4.067
6.4000,4.038
6.4400,4.123
6.4800,4.131
6.5200,4.055
6.5600,4.059
6.6000,4.038
6.6400,4.089
6.6800,4.107
6.7200,4.039
6.7600,4.053
6.8000,4.018
6.8400,3.977
6.8800,3.990
6.9200,3.902
6.9600,3.972
7.0000,3.918
7.0400,3.863
7.0800,3.923
7.1200,4.036
7.1600,3.993
7.2000,3.865
7.2400,3.814
7.2800,3.921
7.3200,3.820
7.3600,3.922
7.4000,3.952
7.4400,3.780
7.4800,3.785
7.5200,3.762
7.5600,3.855
7.6000,3.739
7.6400,3.726
7.6800,3.848
7.7200,3.754
7.7600,3.838
7.8000,3.803
7.8400,3.749
7.8800,3.886
7.9200,3.770
7.9600,3.869
8.0000,3.725
8.0400,3.806
8.0800,3.808
8.1200,3.808
8.1600,3.827
8.2000,3.755
8.2400,3.728
8.2800,3.759
8.3200,3.706
8.3600,3.705
8.4000,3.636
8.4400,3.719
8.4800,3.677
8.5200,3.646
8.5600,3.656
8.6000,3.696
8.6400,3.618
8.6800,3.777
8.7200,3.667
8.7600,3.556
8.8000,3.664
8.8400,3.591
8.8800,3.707
8.9200,3.554
8.9600,3.605
9.0000,3.520
9.0400,3.744
9.0800,3.621
9.1200,3.696
9.1600,3.707
9.2000,3.712
9.2400,3.607
9.2800,3.641
9.3200,3.554
9.3600,3.552
9.4000,3.582
9.4400,3.579
9.4800,3.577
9.5200,3.603
9.5600,3.774
9.6000,3.506
9.6400,3.423
9.6800,3.519
9.7200,3.513
9.7600,3.526
9.8000,3.579
9.8400,3.470
9.8800,3.560
9.9200,3.515
9.9600,3.500
10.0000,3.487
10.0400,3.484
10.0800,3.571
10.1200,3.477
10.1600,3.523
10.2000,3.494
10.2400,3.486
10.2800,3.556
10.3200,3.536
10.3600,3.476
10.4000,3.530
10.4400,3.453
10.4800,3.422
10.5200,3.619
10.5600,3.386
10.6000,3.452
10.6400,3.425
10.6800,3.557
10.7200,3.466
10.7600,3.455
10.8000,3.474
10.8400,3.428
10.8800,3.401
10.9200,3.431
10.9600,3.377
11.0000,3.420
11.0400,3.449
11.0800,3.334
11.1200,3.454
11.1600,3.390
11.2000,3.441
11.2400,3.347
11.2800,3.296
11.3200,3.288
11.3600,3.340
11.4000,3.373
11.4400,3.314
11.4800,3.305
11.5200,3.419
11.5600,3.321
11.6000,3.229
11.6400,3.347
11.6800,3.286
11.7200,3.353
11.7600,3.386
11.8000,3.326
11.8400,3.328
11.8800,3.290
11.9200,3.208
11.9600,3.311
12.0000,3.310
12.0400,3.316
12.0800,3.331
12.1200,3.307
12.1600,3.362
12.2000,3.350
12.2400,3.271
12.2800,3.297
12.3200,3.361
12.3600,3.312
12.4000,3.329
12.4400,3.316
12.4800,3.250
12.5200,3.301
12.5600,3.311
12.6000,3.268
12.6400,3.303
12.6800,3.259
12.7200,3.193
12.7600,3.176
12.8000,3.270
12.8400,3.203
12.8800,3.296
12.9200,3.283
12.9600,3.267
13.0000,3.210
13.0400,3.130
13.0800,3.257
13.1200,3.234
13.1600,3.233
13.2000,3.169
13.2400,3.145
13.2800,3.197
13.3200,3.064
13.3600,3.151
13.4000,3.238
13.4400,3.126
13.4800,3.141
13.5200,3.285
13.5600,3.208
13.6000,3.285
13.6400,3.177
13.6800,3.172
13.7200,3.191
13.7600,3.205
13.8000,3.115
13.8400,3.138
13.8800,3.199
13.9200,3.100
13.9600,3.143
14.0000,3.110
14.0400,3.063
14.0800,3.230
14.1200,3.112
14.1600,3.088
14.2000,3.084
14.2400,3.011
14.2800,3.048
14.3200,3.167
14.3600,3.093
14.4000,3.107
14.4400,3.096
14.4800,3.069
14.5200,3.075
14.5600,3.106
14.6000,3.092
14.6400,3.023
14.6800,2.996
14.7200,3.082
14.7600,3.151
14.8000,3.140
14.8400,3.097
14.8800,3.062
14.9200,3.066
14.9600,2.984
15.0000,3.118
15.0400,3.047
15.0800,2.983
15.1200,3.135
15.1600,3.047
15.2000,3.115
15.2400,3.017
15.2800,2.961
15.3200,3.011
15.3600,3.046
15.4000,2.996
15.4400,3.033
15.4800,2.982
15.5200,3.057
15.5600,3.034
15.6000,3.043
15.6400,2.944
15.6800,2.967
15.7200,2.984
15.7600,3.059
15.8000,3.013
15.8400,3.091
15.8800,3.036
15.9200,3.026
15.9600,2.901
16.0000,2.849
16.0400,2.977
16.0800,2.933
16.1200,2.943
16.1600,2.847
16.2000,3.023
16.2400,3.000
16.2800,2.933
16.3200,2.926
16.3600,2.926
16.4000,2.939
16.4400,2.965
16.4800,2.926
16.5200,2.964
16.5600,2.948
16.6000,2.940
16.6400,2.911
16.6800,2.871
16.7200,2.905
16.7600,2.989
16.8000,2.917
16.8400,2.866
16.8800,2.896
16.9200,2.924
16.9600,2.871
17.0000,2.920
17.0400,2.866
17.0800,2.756
17.1200,2.854
17.1600,2.859
17.2000,2.939
17.2400,2.891
17.2800,2.831
17.3200,2.831
17.3600,2.878
17.4000,2.824
17.4400,2.882
17.4800,2.870
17.5200,2.830
17.5600,2.859
17.6000,2.807
17.6400,2.874
17.6800,2.823
17.7200,2.820
17.7600,2.830
17.8000,2.834
17.8400,2.768
17.8800,2.829
17.9200,2.746
17.9600,2.885
18.0000,2.685
18.0400,2.854
18.0800,2.793
18.1200,2.755
18.1600,2.762
18.2000,2.782
18.2400,2.783
18.2800,2.828
18.3200,2.688
18.3600,2.756
18.4000,2.757
18.4400,2.744
18.4800,2.700
18.5200,2.648
18.5600,2.788
18.6000,2.704
18.6400,2.659
18.6800,2.706
18.7200,2.756
18.7600,2.723
18.8000,2.655
18.8400,2.657
18.8800,2.717
18.9200,2.685
18.9600,2.687
19.0000,2.687
19.0400,2.764
19.0800,2.588
19.1200,2.653
19.1600,2.616
19.2000,2.571
19.2400,2.685
19.2800,2.657
19.3200,2.628
19.3600,2.636
19.4000,2.610
19.4400,2.718
19.4800,2.703
19.5200,2.615
19.5600,2.711
19.6000,2.660
19.6400,2.584
19.6800,2.600
19.7200,2.658
19.7600,2.718
19.8000,2.670
19.8400,2.579
19.8800,2.576
19.9200,2.669
19.9600,2.626
20.0000,2.519
20.0400,2.571
20.0800,2.577
20.1200,2.662
20.1600,2.577
20.2000,2.521
20.2400,2.625
20.2800,2.571
20.3200,2.650
20.3600,2.707
20.4000,2.524
20.4400,2.558
20.4800,2.636
20.5200,2.587
20.5600,2.552
20.6000,2.489
20.6400,2.517
20.6800,2.542
20.7200,2.537
20.7600,2.655
20.8000,2.573
20.8400,2.516
20.8800,2.512
20.9200,2.509
20.9600,2.570
21.0000,2.590
21.0400,2.537
21.0800,2.543
21.1200,2.490
21.1600,2.489
21.2000,2.502
21.2400,2.547
21.2800,2.566
21.3200,2.424
21.3600,2.440
21.4000,2.496
21.4400,2.481
21.4800,2.494
21.5200,2.462
21.5600,2.547
21.6000,2.429
21.6400,2.463
21.6800,2.413
21.7200,2.416
21.7600,2.434
21.8000,2.414
21.8400,2.524
21.8800,2.537
21.9200,2.475
21.9600,2.450
22.0000,2.465
22.0400,2.507
22.0800,2.481
22.1200,2.458
22.1600,2.496
22.2000,2.403
22.2400,2.422
22.2800,2.422
22.3200,2.434
22.3600,2.464
22.4000,2.446
22.4400,2.404
22.4800,2.404
22.5200,2.409
22.5600,2.431
22.6000,2.383
22.6400,2.365
22.6800,2.408
22.7200,2.461
22.7600,2.520
22.8000,2.343
22.8400,2.405
22.8800,2.393
22.9200,2.471
22.9600,2.408
23.0000,2.445
23.0400,2.280
23.0800,2.450
23.1200,2.385
23.1600,2.351
23.2000,2.287
23.2400,2.346
23.2800,2.318
23.3200,2.355
23.3600,2.322
23.4000,2.381
23.4400,2.356
23.4800,2.426
23.5200,2.328
23.5600,2.373
23.6000,2.450
23.6400,2.373
23.6800,2.296
23.7200,2.365
23.7600,2.402
23.8000,2.331
23.8400,2.405
23.8800,2.286
23.9200,2.404
23.9600,2.292
24.0000,2.326
24.0400,2.377
24.0800,2.336
24.1200,2.298
24.1600,2.375
24.2000,2.304
24.2400,2.338
24.2800,2.278
24.3200,2.322
24.3600,2.250
24.4000,2.373
24.4400,2.311
24.4800,2.261
24.5200,2.252
24.5600,2.388
24.6000,2.394
24.6400,2.326
24.6800,2.327
24.7200,2.301
24.7600,2.291
24.8000,2.324
24.8400,2.385
24.8800,2.326
24.9200,2.314
24.9600,2.292
25.0000,2.317
25.0400,2.222
25.0800,2.286
25.1200,2.257
25.1600,2.357
25.2000,2.227
25.2400,2.301
25.2800,2.357
25.3200,2.291
25.3600,2.240
25.4000,2.261
25.4400,2.234
25.4800,2.316
25.5200,2.287
25.5600,2.273
25.6000,2.174
25.6400,2.317
25.6800,2.235
25.7200,2.227
25.7600,2.176
25.8000,2.267
25.8400,2.279
25.8800,2.163
25.9200,2.203
25.9600,2.303
26.0000,2.205
26.0400,2.178
26.0800,2.185
26.1200,2.262
26.1600,2.198
26.2000,2.172
26.2400,2.168
26.2800,2.201
26.3200,2.215
26.3600,2.177
26.4000,2.181
26.4400,2.159
26.4800,2.148
26.5200,2.165
26.5600,2.071
26.6000,2.120
26.6400,2.153
26.6800,2.138
26.7200,2.220
26.7600,2.093
26.8000,2.140
26.8400,2.180
26.8800,2.134
26.9200,2.134
26.9600,2.089
27.0000,2.085
27.0400,2.244
27.0800,2.172
27.1200,2.131
27.1600,2.153
27.2000,2.137
27.2400,2.148
27.2800,2.148
27.3200,2.191
27.3600,2.148
27.4000,2.158
27.4400,2.141
27.4800,2.219
27.5200,2.233
27.5600,2.231
27.6000,2.315
27.6400,2.193
27.6800,2.223
27.7200,2.315
27.7600,2.231
27.8000,2.216
27.8400,2.273
27.8800,2.158
27.9200,2.258
27.9600,2.349
28.0000,2.259
28.0400,2.351
28.0800,2.307
28.1200,2.446
28.1600,2.373
28.2000,2.444
28.2400,2.401
28.2800,2.419
28.3200,2.400
28.3600,2.391
28.4000,2.334
28.4400,2.471
28.4800,2.389
28.5200,2.425
28.5600,2.473
28.6000,2.408
28.6400,2.489
28.6800,2.477
28.7200,2.402
28.7600,2.386
28.8000,2.395
28.8400,2.364
28.8800,2.330
28.9200,2.265
28.9600,2.247
29.0000,2.224
29.0400,2.254
29.0800,2.091
29.1200,2.238
29.1600,2.212
29.2000,2.141
29.2400,2.162
29.2800,2.155
29.3200,2.128
29.3600,2.157
29.4000,2.101
29.4400,2.063
29.4800,2.055
29.5200,1.993
29.5600,1.953
29.6000,2.028
29.6400,2.036
29.6800,2.049
29.7200,2.003
29.7600,1.975
29.8000,1.948
29.8400,1.978
29.8800,1.987
29.9200,1.899
29.9600,1.984
30.0000,2.007
30.0400,1.871
30.0800,1.899
30.1200,1.960
30.1600,1.887
30.2000,1.843
30.2400,1.955
30.2800,1.825
30.3200,1.871
30.3600,1.865
30.4000,1.826
30.4400,1.809
30.4800,1.821
30.5200,1.832
30.5600,1.867
30.6000,1.882
30.6400,1.849
30.6800,1.774
30.7200,1.863
30.7600,1.837
30.8000,1.849
30.8400,1.790
30.8800,1.808
30.9200,1.842
30.9600,1.766
31.0000,1.727
31.0400,1.829
31.0800,1.836
31.1200,1.662
31.1600,1.721
31.2000,1.766
31.2400,1.776
31.2800,1.722
31.3200,1.600
31.3600,1.679
31.4000,1.742
31.4400,1.747
31.4800,1.636
31.5200,1.698
31.5600,1.720
31.6000,1.700
31.6400,1.685
31.6800,1.691
31.7200,1.660
31.7600,1.741
31.8000,1.704
31.8400,1.719
31.8800,1.637
31.9200,1.680
31.9600,1.623
32.0000,1.628
32.0400,1.653
32.0800,1.661
32.1200,1.595
32.1600,1.666
32.2000,1.614
32.2400,1.656
32.2800,1.612
32.3200,1.589
32.3600,1.593
32.4000,1.555
32.4400,1.636
32.4800,1.668
32.5200,1.627
32.5600,1.621
32.6000,1.572
32.6400,1.562
32.6800,1.588
32.7200,1.622
32.7600,1.611
32.8000,1.579
32.8400,1.574
32.8800,1.566
32.9200,1.518
32.9600,1.562
33.0000,1.544
33.0400,1.545
33.0800,1.604
33.1200,1.553
33.1600,1.535
33.2000,1.555
33.2400,1.535
33.2800,1.554
33.3200,1.537
33.3600,1.555
33.4000,1.540
33.4400,1.553
33.4800,1.481
33.5200,1.529
33.5600,1.508
33.6000,1.521
33.6400,1.559
33.6800,1.545
33.7200,1.466
33.7600,1.483
33.8000,1.494
33.8400,1.489
33.8800,1.448
33.9200,1.483
33.9600,1.496
34.0000,1.428
34.0400,1.489
34.0800,1.458
34.1200,1.449
34.1600,1.417
34.2000,1.528
34.2400,1.452
34.2800,1.491
34.3200,1.428
34.3600,1.348
34.4000,1.475
34.4400,1.381
34.4800,1.456
34.5200,1.432
34.5600,1.414
34.6000,1.502
34.6400,1.402
34.6800,1.364
34.7200,1.423
34.7600,1.437
34.8000,1.365
34.8400,1.430
34.8800,1.359
34.9200,1.357
34.9600,1.408
35.0000,1.425
35.0400,1.400
35.0800,1.348
35.1200,1.407
35.1600,1.339
35.2000,1.379
35.2400,1.380
35.2800,1.405
35.3200,1.366
35.3600,1.429
35.4000,1.327
35.4400,1.355
35.4800,1.412
35.5200,1.396
35.5600,1.416
35.6000,1.378
35.6400,1.440
35.6800,1.409
35.7200,1.384
35.7600,1.403
35.8000,1.327
35.8400,1.349
35.8800,1.355
35.9200,1.332
35.9600,1.321
36.0000,1.340
36.0400,1.332
36.0800,1.368
36.1200,1.323
36.1600,1.322
36.2000,1.401
36.2400,1.339
36.2800,1.384
36.3200,1.299
36.3600,1.314
36.4000,1.326
36.4400,1.335
36.4800,1.334
36.5200,1.299
36.5600,1.357
36.6000,1.318
36.6400,1.335
36.6800,1.270
36.7200,1.273
36.7600,1.289
36.8000,1.303
36.8400,1.303
36.8800,1.294
36.9200,1.332
36.9600,1.260
37.0000,1.254
37.0400,1.293
37.0800,1.299
37.1200,1.310
37.1600,1.265
37.2000,1.353
37.2400,1.283
37.2800,1.352
37.3200,1.281
37.3600,1.237
37.4000,1.264
37.4400,1.274
37.4800,1.250
37.5200,1.292
37.5600,1.276
37.6000,1.214
37.6400,1.260
37.6800,1.284
37.7200,1.238
37.7600,1.228
37.8000,1.208
37.8400,1.275
37.8800,1.235
37.9200,1.293
37.9600,1.183
38.0000,1.202
38.0400,1.261
38.0800,1.190
38.1200,1.226
38.1600,1.242
38.2000,1.207
38.2400,1.187
38.2800,1.206
38.3200,1.168
38.3600,1.197
38.4000,1.247
38.4400,1.199
38.4800,1.206
38.5200,1.193
38.5600,1.212
38.6000,1.213
38.6400,1.183
38.6800,1.178
38.7200,1.190
38.7600,1.170
38.8000,1.138
38.8400,1.158
38.8800,1.166
38.9200,1.216
38.9600,1.204
39.0000,1.176
39.0400,1.153
39.0800,1.180
39.1200,1.142
39.1600,1.207
39.2000,1.176
39.2400,1.140
39.2800,1.204
39.3200,1.186
39.3600,1.158
39.4000,1.178
39.4400,1.204
39.4800,1.159
39.5200,1.124
39.5600,1.115
39.6000,1.139
39.6400,1.175
39.6800,1.183
39.7200,1.115
39.7600,1.120
39.8000,1.092
39.8400,1.218
39.8800,1.148
39.9200,1.108
39.9600,1.090
40.0000,1.213
40.0400,1.149
40.0800,1.138
40.1200,1.082
40.1600,1.138
40.2000,1.161
40.2400,1.172
40.2800,1.121
40.3200,1.186
40.3600,1.145
40.4000,1.094
40.4400,1.164
40.4800,1.131
40.5200,1.112
40.5600,1.106
40.6000,1.018
40.6400,1.160
40.6800,1.174
40.7200,1.170
40.7600,1.140
40.8000,1.107
40.8400,1.154
40.8800,1.218
40.9200,1.177
40.9600,1.178
41.0000,1.195
41.0400,1.200
41.0800,1.173
41.1200,1.235
41.1600,1.251
41.2000,1.312
41.2400,1.197
41.2800,1.176
41.3200,1.187
41.3600,1.223
41.4000,1.148
41.4400,1.178
41.4800,1.170
41.5200,1.095
41.5600,1.065
41.6000,1.063
41.6400,1.077
41.6800,1.062
41.7200,1.035
41.7600,1.117
41.8000,1.122
41.8400,1.077
41.8800,1.065
41.9200,1.095
41.9600,1.074
42.0000,1.096
42.0400,1.063
42.0800,1.065
42.1200,1.022
42.1600,1.068
42.2000,1.041
42.2400,1.031
42.2800,1.008
42.3200,1.005
42.3600,1.040
42.4000,1.058
42.4400,0.982
42.4800,1.015
42.5200,1.039
42.5600,1.070
42.6000,1.030
42.6400,1.031
42.6800,1.071
42.7200,1.027
42.7600,0.989
42.8000,1.011
42.8400,0.969
42.8800,0.935
42.9200,1.014
42.9600,1.033
43.0000,0.993
43.0400,0.959
43.0800,1.034
43.1200,0.971
43.1600,0.975
43.2000,1.021
43.2400,1.017
43.2800,0.949
43.3200,0.977
43.3600,1.021
43.4000,1.000
43.4400,0.963
43.4800,1.022
43.5200,0.948
43.5600,0.991
43.6000,0.991
43.6400,0.993
43.6800,0.997
43.7200,0.944
43.7600,0.922
43.8000,0.981
43.8400,0.909
43.8800,0.932
43.9200,0.915
43.9600,0.905
44.0000,0.953
44.0400,0.933
44.0800,0.947
44.1200,0.940
44.1600,0.942
44.2000,0.947
44.2400,1.025
44.2800,0.890
44.3200,0.970
44.3600,0.918
44.4000,1.005
44.4400,0.921
44.4800,1.023
44.5200,0.896
44.5600,0.925
44.6000,0.914
44.6400,0.887
44.6800,0.893
44.7200,0.957
44.7600,0.926
44.8000,0.950
44.8400,0.927
44.8800,0.934
44.9200,0.953
44.9600,0.940
45.0000,0.866
45.0400,0.928
45.0800,0.961
45.1200,0.908
45.1600,0.886
45.2000,0.908
45.2400,0.943
45.2800,0.879
45.3200,0.973
45.3600,0.931
45.4000,0.931
45.4400,0.914
45.4800,0.851
45.5200,0.887
45.5600,0.845
45.6000,0.899
45.6400,0.859
45.6800,0.878
45.7200,0.820
45.7600,0.861
45.8000,0.890
45.8400,0.897
45.8800,0.863
45.9200,0.904
45.9600,0.918
46.0000,0.871
46.0400,0.914
46.0800,0.907
46.1200,0.873
46.1600,0.865
46.2000,0.874
46.2400,0.843
46.2800,0.856
46.3200,0.875
46.3600,0.816
46.4000,0.895
46.4400,0.816
46.4800,0.857
46.5200,0.880
46.5600,0.799
46.6000,0.882
46.6400,0.855
46.6800,0.843
46.7200,0.846
46.7600,0.843
46.8000,0.827
46.8400,0.828
46.8800,0.891
46.9200,0.792
46.9600,0.822
47.0000,0.847
47.0400,0.864
47.0800,0.881
47.1200,0.858
47.1600,0.899
47.2000,0.861
47.2400,0.898
47.2800,0.831
47.3200,0.857
47.3600,0.840
47.4000,0.855
47.4400,0.887
47.4800,0.866
47.5200,0.860
47.5600,0.907
47.6000,0.871
47.6400,0.886
47.6800,0.835
47.7200,0.850
47.7600,0.878
47.8000,0.891
47.8400,0.881
47.8800,0.825
47.9200,0.841
47.9600,0.852
48.0000,0.816
48.0400,0.862
48.0800,0.920
48.1200,0.828
48.1600,0.794
48.2000,0.846
48.2400,0.781
48.2800,0.834
48.3200,0.773
48.3600,0.779
48.4000,0.772
48.4400,0.808
48.4800,0.818
48.5200,0.815
48.5600,0.853
48.6000,0.745
48.6400,0.781
48.6800,0.815
48.7200,0.777
48.7600,0.813
48.8000,0.813
48.8400,0.767
48.8800,0.737
48.9200,0.786
48.9600,0.758
49.0000,0.813
49.0400,0.748
49.0800,0.772
49.1200,0.698
49.1600,0.778
49.2000,0.767
49.2400,0.770
49.2800,0.794
49.3200,0.735
49.3600,0.767
49.4000,0.742
49.4400,0.757
49.4800,0.717
49.5200,0.800
49.5600,0.767
49.6000,0.753
49.6400,0.737
49.6800,0.738
49.7200,0.731
49.7600,0.715
49.8000,0.753
49.8400,0.720
49.8800,0.707
49.9200,0.690
49.9600,0.676
50.0000,0.779
50.0400,0.786
50.0800,0.773
50.1200,0.719
50.1600,0.778
50.2000,0.722
50.2400,0.707
50.2800,0.752
50.3200,0.722
50.3600,0.746
50.4000,0.739
50.4400,0.762
50.4800,0.680
50.5200,0.713
50.5600,0.714
50.6000,0.687
50.6400,0.705
50.6800,0.699
50.7200,0.714
50.7600,0.742
50.8000,0.689
50.8400,0.748
50.8800,0.694
50.9200,0.687
50.9600,0.710
51.0000,0.737
51.0400,0.762
51.0800,0.717
51.1200,0.685
51.1600,0.732
51.2000,0.708
51.2400,0.680
51.2800,0.653
51.3200,0.725
51.3600,0.690
51.4000,0.651
51.4400,0.673
51.4800,0.650
51.5200,0.661
51.5600,0.709
51.6000,0.708
51.6400,0.703
51.6800,0.743
51.7200,0.764
51.7600,0.705
51.8000,0.716
51.8400,0.707
51.8800,0.674
51.9200,0.705
51.9600,0.700
52.0000,0.685
52.0400,0.663
52.0800,0.674
52.1200,0.702
52.1600,0.688
52.2000,0.655
52.2400,0.668
52.2800,0.634
52.3200,0.679
52.3600,0.623
52.4000,0.721
52.4400,0.661
52.4800,0.651
52.5200,0.714
52.5600,0.665
52.6000,0.672
52.6400,0.633
52.6800,0.636
52.7200,0.645
52.7600,0.647
52.8000,0.677
52.8400,0.636
52.8800,0.691
52.9200,0.617
52.9600,0.695
53.0000,0.664
53.0400,0.644
53.0800,0.626
53.1200,0.639
53.1600,0.639
53.2000,0.667
53.2400,0.682
53.2800,0.655
53.3200,0.648
53.3600,0.664
53.4000,0.642
53.4400,0.653
53.4800,0.634
53.5200,0.639
53.5600,0.693
53.6000,0.671
53.6400,0.648
53.6800,0.572
53.7200,0.625
53.7600,0.632
53.8000,0.626
53.8400,0.613
53.8800,0.633
53.9200,0.666
53.9600,0.634
54.0000,0.576
54.0400,0.638
54.0800,0.638
54.1200,0.674
54.1600,0.648
54.2000,0.649
54.2400,0.608
54.2800,0.660
54.3200,0.659
54.3600,0.638
54.4000,0.619
54.4400,0.604
54.4800,0.640
54.5200,0.668
54.5600,0.612
54.6000,0.635
54.6400,0.614
54.6800,0.614
54.7200,0.599
54.7600,0.601
54.8000,0.628
54.8400,0.586
54.8800,0.584
54.9200,0.646
54.9600,0.664
55.0000,0.674
55.0400,0.573
55.0800,0.614
55.1200,0.621
55.1600,0.632
55.2000,0.564
55.2400,0.633
55.2800,0.566
55.3200,0.583
55.3600,0.575
55.4000,0.585
55.4400,0.622
55.4800,0.585
55.5200,0.604
55.5600,0.545
55.6000,0.572
55.6400,0.579
55.6800,0.558
55.7200,0.632
55.7600,0.620
55.8000,0.576
55.8400,0.619
55.8800,0.568
55.9200,0.611
55.9600,0.584
56.0000,0.586
56.0400,0.613
56.0800,0.618
56.1200,0.616
56.1600,0.574
56.2000,0.611
56.2400,0.657
56.2800,0.540
56.3200,0.594
56.3600,0.615
56.4000,0.584
56.4400,0.564
56.4800,0.584
56.5200,0.574
56.5600,0.560
56.6000,0.547
56.6400,0.560
56.6800,0.594
56.7200,0.549
56.7600,0.569
56.8000,0.577
56.8400,0.597
56.8800,0.582
56.9200,0.583
56.9600,0.550
57.0000,0.537
57.0400,0.602
57.0800,0.603
57.1200,0.529
57.1600,0.512
57.2000,0.545
57.2400,0.531
57.2800,0.518
57.3200,0.553
57.3600,0.571
57.4000,0.507
57.4400,0.537
57.4800,0.530
57.5200,0.578
57.5600,0.597
57.6000,0.542
57.6400,0.572
57.6800,0.547
57.7200,0.597
57.7600,0.563
57.8000,0.584
57.8400,0.540
57.8800,0.519
57.9200,0.533
57.9600,0.537
58.0000,0.570
58.0400,0.514
58.0800,0.591
58.1200,0.548
58.1600,0.556
58.2000,0.526
58.2400,0.560
58.2800,0.599
58.3200,0.547
58.3600,0.546
58.4000,0.549
58.4400,0.532
58.4800,0.576
58.5200,0.557
58.5600,0.533
58.6000,0.533
58.6400,0.538
58.6800,0.534
58.7200,0.532
58.7600,0.525
58.8000,0.505
58.8400,0.496
58.8800,0.498
58.9200,0.537
58.9600,0.537
59.0000,0.591
59.0400,0.501
59.0800,0.538
59.1200,0.500
59.1600,0.501
59.2000,0.518
59.2400,0.498
59.2800,0.519
59.3200,0.512
59.3600,0.511
59.4000,0.503
59.4400,0.510
59.4800,0.543
59.5200,0.542
59.5600,0.523
59.6000,0.498
59.6400,0.535
59.6800,0.510
59.7200,0.522
59.7600,0.493
59.8000,0.517
59.8400,0.527
59.8800,0.486
59.9200,0.484
59.9600,0.492
60.0000,0.553
60.0400,0.495
60.0800,0.492
60.1200,0.483
60.1600,0.492
60.2000,0.483
60.2400,0.475
60.2800,0.478
60.3200,0.481
60.3600,0.489
60.4000,0.522
60.4400,0.475
60.4800,0.512
60.5200,0.492
60.5600,0.507
60.6000,0.480
60.6400,0.511
60.6800,0.520
60.7200,0.467
60.7600,0.466
60.8000,0.543
60.8400,0.478
60.8800,0.492
60.9200,0.529
60.9600,0.473
61.0000,0.512
61.0400,0.492
61.0800,0.479
61.1200,0.488
61.1600,0.492
61.2000,0.448
61.2400,0.454
61.2800,0.485
61.3200,0.501
61.3600,0.454
61.4000,0.481
61.4400,0.466
61.4800,0.496
61.5200,0.457
61.5600,0.419
61.6000,0.486
61.6400,0.448
61.6800,0.478
61.7200,0.484
61.7600,0.434
61.8000,0.429
61.8400,0.457
61.8800,0.489
61.9200,0.467
61.9600,0.470
62.0000,0.493
62.0400,0.478
62.0800,0.475
62.1200,0.449
62.1600,0.436
62.2000,0.476
62.2400,0.433
62.2800,0.490
62.3200,0.411
62.3600,0.427
62.4000,0.432
62.4400,0.441
62.4800,0.452
62.5200,0.461
62.5600,0.435
62.6000,0.424
62.6400,0.466
62.6800,0.449
62.7200,0.467
62.7600,0.394
62.8000,0.398
62.8400,0.389
62.8800,0.462
62.9200,0.423
62.9600,0.419
63.0000,0.430
63.0400,0.447
63.0800,0.452
63.1200,0.453
63.1600,0.433
63.2000,0.451
63.2400,0.405
63.2800,0.444
63.3200,0.436
63.3600,0.436
63.4000,0.465
63.4400,0.434
63.4800,0.439
63.5200,0.437
63.5600,0.468
63.6000,0.476
63.6400,0.437
63.6800,0.417
63.7200,0.418
63.7600,0.437
63.8000,0.399
63.8400,0.400
63.8800,0.428
63.9200,0.381
63.9600,0.431
64.0000,0.411
64.0400,0.384
64.0800,0.409
64.1200,0.465
64.1600,0.441
64.2000,0.420
64.2400,0.418
64.2800,0.415
64.3200,0.428
64.3600,0.397
64.4000,0.408
64.4400,0.383
64.4800,0.398
64.5200,0.432
64.5600,0.432
64.6000,0.410
64.6400,0.409
64.6800,0.376
64.7200,0.378
64.7600,0.439
64.8000,0.389
64.8400,0.408
64.8800,0.416
64.9200,0.354
64.9600,0.393
65.0000,0.402
65.0400,0.393
65.0800,0.383
65.1200,0.387
65.1600,0.430
65.2000,0.405
65.2400,0.395
65.2800,0.359
65.3200,0.433
65.3600,0.411
65.4000,0.388
65.4400,0.386
65.4800,0.412
65.5200,0.388
65.5600,0.370
65.6000,0.380
65.6400,0.383
65.6800,0.391
65.7200,0.395
65.7600,0.404
65.8000,0.374
65.8400,0.390
65.8800,0.375
65.9200,0.383
65.9600,0.340
66.0000,0.387
66.0400,0.397
66.0800,0.382
66.1200,0.396
66.1600,0.376
66.2000,0.360
66.2400,0.365
66.2800,0.348
66.3200,0.390
66.3600,0.349
66.4000,0.368
66.4400,0.357
66.4800,0.361
66.5200,0.365
66.5600,0.353
66.6000,0.404
66.6400,0.393
66.6800,0.367
66.7200,0.377
66.7600,0.358
66.8000,0.384
66.8400,0.348
66.8800,0.407
66.9200,0.342
66.9600,0.357
67.0000,0.387
67.0400,0.363
67.0800,0.343
67.1200,0.376
67.1600,0.348
67.2000,0.412
67.2400,0.376
67.2800,0.392
67.3200,0.360
67.3600,0.376
67.4000,0.295
67.4400,0.330
67.4800,0.322
67.5200,0.360
67.5600,0.366
67.6000,0.351
67.6400,0.355
67.6800,0.359
67.7200,0.369
67.7600,0.363
67.8000,0.346
67.8400,0.339
67.8800,0.360
67.9200,0.346
67.9600,0.378
68.0000,0.386
68.0400,0.358
68.0800,0.321
68.1200,0.340
68.1600,0.353
68.2000,0.335
68.2400,0.378
68.2800,0.341
68.3200,0.348
68.3600,0.371
68.4000,0.351
68.4400,0.329
68.4800,0.351
68.5200,0.317
68.5600,0.325
68.6000,0.358
68.6400,0.371
68.6800,0.332
68.7200,0.351
68.7600,0.366
68.8000,0.346
68.8400,0.343
68.8800,0.344
68.9200,0.321
68.9600,0.334
69.0000,0.338
69.0400,0.325
69.0800,0.333
69.1200,0.337
69.1600,0.342
69.2000,0.357
69.2400,0.344
69.2800,0.351
69.3200,0.314
69.3600,0.331
69.4000,0.343
69.4400,0.340
69.4800,0.329
69.5200,0.375
69.5600,0.374
69.6000,0.317
69.6400,0.373
69.6800,0.355
69.7200,0.378
69.7600,0.351
69.8000,0.372
69.8400,0.342
69.8800,0.387
69.9200,0.366
69.9600,0.337
70.0000,0.354
70.0400,0.375
70.0800,0.321
70.1200,0.368
70.1600,0.350
70.2000,0.386
70.2400,0.322
70.2800,0.340
70.3200,0.369
70.3600,0.365
70.4000,0.334
70.4400,0.305
70.4800,0.347
70.5200,0.327
70.5600,0.307
70.6000,0.277
70.6400,0.314
70.6800,0.340
70.7200,0.318
70.7600,0.341
70.8000,0.337
70.8400,0.321
70.8800,0.325
70.9200,0.329
70.9600,0.324
71.0000,0.323
71.0400,0.316
71.0800,0.349
71.1200,0.338
71.1600,0.306
71.2000,0.325
71.2400,0.317
71.2800,0.317
71.3200,0.292
71.3600,0.297
71.4000,0.300
71.4400,0.324
71.4800,0.307
71.5200,0.308
71.5600,0.315
71.6000,0.316
71.6400,0.304
71.6800,0.318
71.7200,0.295
71.7600,0.315
71.8000,0.296
71.8400,0.318
71.8800,0.335
71.9200,0.345
71.9600,0.284
72.0000,0.332
72.0400,0.308
72.0800,0.327
72.1200,0.285
72.1600,0.330
72.2000,0.346
72.2400,0.284
72.2800,0.291
72.3200,0.322
72.3600,0.344
72.4000,0.318
72.4400,0.296
72.4800,0.298
72.5200,0.298
72.5600,0.315
72.6000,0.283
72.6400,0.297
72.6800,0.304
72.7200,0.298
72.7600,0.325
72.8000,0.289
72.8400,0.293
72.8800,0.317
72.9200,0.292
72.9600,0.300
73.0000,0.299
73.0400,0.282
73.0800,0.281
73.1200,0.329
73.1600,0.290
73.2000,0.276
73.2400,0.313
73.2800,0.270
73.3200,0.289
73.3600,0.290
73.4000,0.296
73.4400,0.310
73.4800,0.298
73.5200,0.289
73.5600,0.276
73.6000,0.269
73.6400,0.301
73.6800,0.315
73.7200,0.319
73.7600,0.296
73.8000,0.296
73.8400,0.287
73.8800,0.303
73.9200,0.263
73.9600,0.267
74.0000,0.272
74.0400,0.310
74.0800,0.281
74.1200,0.303
74.1600,0.284
74.2000,0.273
74.2400,0.293
74.2800,0.320
74.3200,0.286
74.3600,0.283
74.4000,0.292
74.4400,0.270
74.4800,0.312
74.5200,0.313
74.5600,0.258
74.6000,0.275
74.6400,0.312
74.6800,0.283
74.7200,0.274
74.7600,0.258
74.8000,0.326
74.8400,0.287
74.8800,0.250
74.9200,0.280
74.9600,0.304
75.0000,0.315
75.0400,0.277
75.0800,0.329
75.1200,0.306
75.1600,0.269
75.2000,0.287
75.2400,0.281
75.2800,0.289
75.3200,0.307
75.3600,0.248
75.4000,0.310
75.4400,0.279
75.4800,0.245
75.5200,0.287
75.5600,0.268
75.6000,0.297
75.6400,0.297
75.6800,0.273
75.7200,0.271
75.7600,0.265
75.8000,0.275
75.8400,0.280
75.8800,0.255
75.9200,0.291
75.9600,0.301
76.0000,0.245
76.0400,0.284
76.0800,0.298
76.1200,0.252
76.1600,0.302
76.2000,0.247
76.2400,0.260
76.2800,0.256
76.3200,0.274
76.3600,0.283
76.4000,0.286
76.4400,0.298
76.4800,0.283
76.5200,0.268
76.5600,0.253
76.6000,0.269
76.6400,0.274
76.6800,0.283
76.7200,0.248
76.7600,0.254
76.8000,0.284
76.8400,0.282
76.8800,0.243
76.9200,0.266
76.9600,0.288
77.0000,0.279
77.0400,0.271
77.0800,0.268
77.1200,0.277
77.1600,0.286
77.2000,0.264
77.2400,0.286
77.2800,0.271
77.3200,0.246
77.3600,0.232
77.4000,0.253
77.4400,0.282
77.4800,0.278
77.5200,0.310
77.5600,0.275
77.6000,0.243
77.6400,0.258
77.6800,0.271
77.7200,0.267
77.7600,0.291
77.8000,0.265
77.8400,0.277
77.8800,0.267
77.9200,0.261
77.9600,0.257
78.0000,0.262
78.0400,0.257
78.0800,0.258
78.1200,0.245
78.1600,0.267
78.2000,0.289
78.2400,0.281
78.2800,0.258
78.3200,0.268
78.3600,0.282
78.4000,0.259
78.4400,0.276
78.4800,0.282
78.5200,0.267
78.5600,0.261
78.6000,0.282
78.6400,0.232
78.6800,0.266
78.7200,0.278
78.7600,0.270
78.8000,0.284
78.8400,0.239
78.8800,0.293
78.9200,0.267
78.9600,0.220
79.0000,0.247
79.0400,0.245
79.0800,0.246
79.1200,0.251
79.1600,0.283
79.2000,0.269
79.2400,0.267
79.2800,0.259
79.3200,0.269
79.3600,0.263
79.4000,0.238
79.4400,0.265
79.4800,0.275
79.5200,0.250
79.5600,0.240
79.6000,0.242
79.6400,0.267
79.6800,0.257
79.7200,0.264
79.7600,0.253
79.8000,0.217
79.8400,0.267
79.8800,0.282
79.9200,0.274
79.9600,0.263
80.0000,0.238
