theta,intensity
5.0000,5.284
5.0400,5.137
5.0800,5.289
5.1200,5.215
5.1600,5.228
5.2000,5.089
5.2400,5.081
5.2800,5.201
5.3200,5.079
5.3600,4.993
5.4000,5.078
5.4400,5.078
5.4800,4.974
5.5200,5.034
5.5600,4.865
5.6000,4.823
5.6400,4.843
5.6800,4.806
5.7200,4.804
5.7600,4.661
5.8000,4.828
5.8400,4.707
5.8800,4.702
5.9200,4.422
5.9600,4.447
6.0000,4.450
6.0400,4.440
6.0800,4.387
6.1200,4.260
6.1600,4.374
6.2000,4.339
6.2400,4.272
6.2800,4.181
6.3200,4.065
6.3600,4.282
6.4000,4.129
6.4400,4.158
6.4800,4.215
6.5200,4.169
6.5600,4.038
6.6000,4.038
6.6400,4.170
6.6800,4.084
6.7200,4.076
6.7600,3.952
6.8000,4.025
6.8400,4.090
6.8800,3.945
6.9200,3.922
6.9600,3.960
7.0000,3.967
7.0400,3.929
7.0800,4.129
7.1200,3.874
7.1600,3.963
7.2000,3.999
7.2400,3.952
7.2800,3.933
7.3200,3.876
7.3600,3.868
7.4000,3.919
7.4400,4.008
7.4800,3.945
7.5200,3.879
7.5600,3.805
7.6000,3.804
7.6400,3.910
7.6800,3.924
7.7200,3.902
7.7600,3.833
7.8000,3.796
7.8400,3.782
7.8800,3.822
7.9200,3.853
7.9600,3.819
8.0000,3.863
8.0400,3.796
8.0800,3.788
8.1200,3.865
8.1600,3.744
8.2000,3.887
8.2400,3.936
8.2800,3.779
8.3200,3.806
8.3600,3.771
8.4000,3.700
8.4400,3.681
8.4800,3.798
8.5200,3.775
8.5600,3.693
8.6000,3.791
8.6400,3.725
8.6800,3.842
8.7200,3.656
8.7600,3.600
8.8000,3.685
8.8400,3.731
8.8800,3.629
8.9200,3.787
8.9600,3.651
9.0000,3.851
9.0400,3.606
9.0800,3.655
9.1200,3.624
9.1600,3.627
9.2000,3.625
9.2400,3.647
9.2800,3.690
9.3200,3.600
9.3600,3.684
9.4000,3.717
9.4400,3.698
9.4800,3.619
9.5200,3.629
9.5600,3.563
9.6000,3.660
9.6400,3.592
9.6800,3.640
9.7200,3.597
9.7600,3.605
9.8000,3.732
9.8400,3.660
9.8800,3.602
9.9200,3.615
9.9600,3.635
10.0000,3.679
10.0400,3.460
10.0800,3.603
10.1200,3.677
10.1600,3.384
10.2000,3.685
10.2400,3.669
10.2800,3.570
10.3200,3.508
10.3600,3.432
10.4000,3.549
10.4400,3.575
10.4800,3.572
10.5200,3.525
10.5600,3.542
10.6000,3.537
10.6400,3.580
10.6800,3.504
10.7200,3.534
10.7600,3.468
10.8000,3.541
10.8400,3.521
10.8800,3.414
10.9200,3.371
10.9600,3.548
11.0000,3.390
11.0400,3.392
11.0800,3.496
11.1200,3.358
11.1600,3.503
11.2000,3.424
11.2400,3.443
11.2800,3.364
11.3200,3.489
11.3600,3.470
11.4000,3.480
11.4400,3.360
11.4800,3.497
11.5200,3.465
11.5600,3.514
11.6000,3.373
11.6400,3.371
11.6800,3.593
11.7200,3.370
11.7600,3.403
11.8000,3.373
11.8400,3.294
11.8800,3.311
11.9200,3.272
11.9600,3.452
12.0000,3.409
12.0400,3.394
12.0800,3.452
12.1200,3.319
12.1600,3.409
12.2000,3.268
12.2400,3.301
12.2800,3.349
12.3200,3.374
12.3600,3.317
12.4000,3.397
12.4400,3.397
12.4800,3.407
12.5200,3.315
12.5600,3.437
12.6000,3.274
12.6400,3.318
12.6800,3.308
12.7200,3.355
12.7600,3.322
12.8000,3.219
12.8400,3.187
12.8800,3.302
12.9200,3.296
12.9600,3.369
13.0000,3.397
13.0400,3.366
13.0800,3.223
13.1200,3.300
13.1600,3.288
13.2000,3.262
13.2400,3.228
13.2800,3.297
13.3200,3.327
13.3600,3.141
13.4000,3.234
13.4400,3.300
13.4800,3.281
13.5200,3.194
13.5600,3.268
13.6000,3.320
13.6400,3.267
13.6800,3.254
13.7200,3.123
13.7600,3.202
13.8000,3.215
13.8400,3.197
13.8800,3.325
13.9200,3.340
13.9600,3.215
14.0000,3.071
14.0400,3.322
14.0800,3.195
14.1200,3.202
14.1600,3.211
14.2000,3.089
14.2400,3.257
14.2800,3.147
14.3200,3.112
14.3600,3.139
14.4000,3.094
14.4400,3.194
14.4800,3.177
14.5200,3.140
14.5600,3.222
14.6000,3.171
14.6400,3.213
14.6800,3.216
14.7200,3.170
14.7600,3.082
14.8000,3.091
14.8400,3.168
14.8800,3.194
14.9200,3.142
14.9600,3.128
15.0000,3.106
15.0400,3.150
15.0800,3.156
15.1200,3.189
15.1600,3.217
15.2000,3.133
15.2400,3.000
15.2800,3.078
15.3200,3.146
15.3600,3.163
15.4000,3.073
15.4400,3.042
15.4800,3.118
15.5200,3.121
15.5600,3.088
15.6000,3.055
15.6400,3.234
15.6800,3.089
15.7200,3.044
15.7600,3.086
15.8000,3.121
15.8400,2.982
15.8800,3.047
15.9200,3.065
15.9600,2.969
16.0000,2.961
16.0400,3.171
16.0800,3.031
16.1200,3.159
16.1600,3.061
16.2000,3.025
16.2400,2.948
16.2800,3.052
16.3200,3.031
16.3600,3.021
16.4000,3.074
16.4400,2.996
16.4800,3.154
16.5200,2.976
16.5600,3.116
16.6000,3.070
16.6400,2.977
16.6800,2.984
16.7200,3.070
16.7600,2.953
16.8000,2.948
16.8400,2.988
16.8800,2.983
16.9200,2.987
16.9600,2.931
17.0000,2.947
17.0400,3.075
17.0800,3.079
17.1200,2.935
17.1600,2.873
17.2000,3.004
17.2400,2.959
17.2800,2.934
17.3200,3.046
17.3600,2.943
17.4000,2.967
17.4400,2.990
17.4800,3.058
17.5200,2.964
17.5600,2.915
17.6000,2.866
17.6400,2.884
17.6800,2.923
17.7200,2.864
17.7600,2.935
17.8000,2.874
17.8400,2.963
17.8800,2.835
17.9200,2.852
17.9600,2.902
18.0000,2.922
18.0400,2.929
18.0800,2.911
18.1200,2.819
18.1600,2.772
18.2000,2.843
18.2400,2.890
18.2800,2.815
18.3200,2.778
18.3600,2.842
18.4000,2.830
18.4400,2.805
18.4800,2.811
18.5200,2.846
18.5600,2.858
18.6000,2.926
18.6400,2.835
18.6800,2.790
18.7200,2.711
18.7600,2.687
18.8000,2.762
18.8400,2.733
18.8800,2.863
18.9200,2.706
18.9600,2.797
19.0000,2.638
19.0400,2.832
19.0800,2.799
19.1200,2.749
19.1600,2.745
19.2000,2.830
19.2400,2.723
19.2800,2.751
19.3200,2.777
19.3600,2.711
19.4000,2.697
19.4400,2.671
19.4800,2.690
19.5200,2.775
19.5600,2.687
19.6000,2.644
19.6400,2.618
19.6800,2.704
19.7200,2.681
19.7600,2.671
19.8000,2.599
19.8400,2.692
19.8800,2.725
19.9200,2.601
19.9600,2.599
20.0000,2.682
20.0400,2.609
20.0800,2.671
20.1200,2.623
20.1600,2.693
20.2000,2.675
20.2400,2.659
20.2800,2.672
20.3200,2.750
20.3600,2.620
20.4000,2.640
20.4400,2.653
20.4800,2.599
20.5200,2.618
20.5600,2.703
20.6000,2.573
20.6400,2.598
20.6800,2.635
20.7200,2.735
20.7600,2.648
20.8000,2.597
20.8400,2.641
20.8800,2.633
20.9200,2.648
20.9600,2.639
21.0000,2.645
21.0400,2.581
21.0800,2.599
21.1200,2.609
21.1600,2.549
21.2000,2.529
21.2400,2.521
21.2800,2.607
21.3200,2.553
21.3600,2.515
21.4000,2.559
21.4400,2.469
21.4800,2.560
21.5200,2.627
21.5600,2.560
21.6000,2.605
21.6400,2.548
21.6800,2.575
21.7200,2.437
21.7600,2.553
21.8000,2.546
21.8400,2.559
21.8800,2.499
21.9200,2.552
21.9600,2.632
22.0000,2.525
22.0400,2.590
22.0800,2.497
22.1200,2.509
22.1600,2.363
22.2000,2.569
22.2400,2.491
22.2800,2.411
22.3200,2.468
22.3600,2.427
22.4000,2.450
22.4400,2.443
22.4800,2.465
22.5200,2.485
22.5600,2.478
22.6000,2.469
22.6400,2.492
22.6800,2.531
22.7200,2.378
22.7600,2.530
22.8000,2.453
22.8400,2.497
22.8800,2.432
22.9200,2.385
22.9600,2.514
23.0000,2.391
23.0400,2.402
23.0800,2.471
23.1200,2.469
23.1600,2.424
23.2000,2.442
23.2400,2.428
23.2800,2.354
23.3200,2.417
23.3600,2.360
23.4000,2.437
23.4400,2.411
23.4800,2.419
23.5200,2.419
23.5600,2.419
23.6000,2.379
23.6400,2.390
23.6800,2.432
23.7200,2.379
23.7600,2.511
23.8000,2.441
23.8400,2.349
23.8800,2.365
23.9200,2.373
23.9600,2.407
24.0000,2.402
24.0400,2.388
24.0800,2.329
24.1200,2.271
24.1600,2.456
24.2000,2.349
24.2400,2.335
24.2800,2.326
24.3200,2.287
24.3600,2.303
24.4000,2.223
24.4400,2.300
24.4800,2.379
24.5200,2.266
24.5600,2.335
24.6000,2.341
24.6400,2.277
24.6800,2.342
24.7200,2.292
24.7600,2.294
24.8000,2.392
24.8400,2.270
24.8800,2.335
24.9200,2.322
24.9600,2.294
25.0000,2.329
25.0400,2.288
25.0800,2.307
25.1200,2.259
25.1600,2.279
25.2000,2.289
25.2400,2.310
25.2800,2.360
25.3200,2.194
25.3600,2.297
25.4000,2.346
25.4400,2.268
25.4800,2.260
25.5200,2.297
25.5600,2.246
25.6000,2.299
25.6400,2.210
25.6800,2.202
25.7200,2.284
25.7600,2.275
25.8000,2.252
25.8400,2.322
25.8800,2.249
25.9200,2.198
25.9600,2.300
26.0000,2.240
26.0400,2.144
26.0800,2.118
26.1200,2.329
26.1600,2.222
26.2000,2.219
26.2400,2.170
26.2800,2.175
26.3200,2.274
26.3600,2.196
26.4000,2.181
26.4400,2.105
26.4800,2.143
26.5200,2.094
26.5600,2.171
26.6000,2.159
26.6400,2.225
26.6800,2.066
26.7200,2.137
26.7600,2.152
26.8000,2.099
26.8400,2.086
26.8800,2.164
26.9200,2.206
26.9600,2.156
27.0000,2.187
27.0400,2.139
27.0800,2.115
27.1200,2.129
27.1600,2.138
27.2000,2.079
27.2400,2.204
27.2800,2.116
27.3200,2.063
27.3600,2.089
27.4000,2.101
27.4400,2.152
27.4800,2.058
27.5200,2.115
27.5600,2.142
27.6000,2.227
27.6400,2.072
27.6800,2.133
27.7200,2.077
27.7600,2.152
27.8000,2.111
27.8400,2.088
27.8800,2.228
27.9200,2.184
27.9600,2.217
28.0000,2.243
28.0400,2.112
28.0800,2.213
28.1200,2.257
28.1600,2.247
28.2000,2.244
28.2400,2.189
28.2800,2.110
28.3200,2.151
28.3600,2.228
28.4000,2.195
28.4400,2.199
28.4800,2.206
28.5200,2.224
28.5600,2.128
28.6000,2.233
28.6400,2.212
28.6800,2.149
28.7200,2.178
28.7600,2.131
28.8000,2.229
28.8400,2.158
28.8800,2.132
28.9200,2.121
28.9600,2.093
29.0000,2.090
29.0400,2.134
29.0800,2.098
29.1200,2.085
29.1600,2.079
29.2000,1.994
29.2400,2.032
29.2800,2.022
29.3200,2.014
29.3600,2.038
29.4000,1.927
29.4400,1.958
29.4800,1.981
29.5200,2.036
29.5600,1.943
29.6000,1.920
29.6400,1.896
29.6800,1.961
29.7200,1.924
29.7600,1.990
29.8000,2.016
29.8400,1.981
29.8800,1.938
29.9200,1.879
29.9600,1.884
30.0000,1.910
30.0400,1.921
30.0800,1.792
30.1200,1.800
30.1600,1.882
30.2000,1.854
30.2400,1.870
30.2800,1.863
30.3200,1.840
30.3600,1.877
30.4000,1.882
30.4400,1.868
30.4800,1.886
30.5200,1.761
30.5600,1.798
30.6000,1.830
30.6400,1.756
30.6800,1.798
30.7200,1.794
30.7600,1.778
30.8000,1.823
30.8400,1.748
30.8800,1.771
30.9200,1.782
30.9600,1.771
31.0000,1.806
31.0400,1.800
31.0800,1.834
31.1200,1.776
31.1600,1.787
31.2000,1.789
31.2400,1.712
31.2800,1.728
31.3200,1.823
31.3600,1.663
31.4000,1.689
31.4400,1.785
31.4800,1.769
31.5200,1.737
31.5600,1.785
31.6000,1.698
31.6400,1.761
31.6800,1.707
31.7200,1.748
31.7600,1.741
31.8000,1.712
31.8400,1.849
31.8800,1.768
31.9200,1.707
31.9600,1.740
32.0000,1.696
32.0400,1.659
32.0800,1.641
32.1200,1.668
32.1600,1.670
32.2000,1.753
32.2400,1.762
32.2800,1.655
32.3200,1.623
32.3600,1.749
32.4000,1.657
32.4400,1.694
32.4800,1.697
32.5200,1.597
32.5600,1.668
32.6000,1.671
32.6400,1.625
32.6800,1.674
32.7200,1.644
32.7600,1.686
32.8000,1.667
32.8400,1.645
32.8800,1.696
32.9200,1.620
32.9600,1.604
33.0000,1.616
33.0400,1.601
33.0800,1.601
33.1200,1.576
33.1600,1.626
33.2000,1.597
33.2400,1.614
33.2800,1.639
33.3200,1.605
33.3600,1.675
33.4000,1.664
33.4400,1.621
33.4800,1.603
33.5200,1.541
33.5600,1.563
33.6000,1.638
33.6400,1.607
33.6800,1.656
33.7200,1.616
33.7600,1.582
33.8000,1.560
33.8400,1.585
33.8800,1.580
33.9200,1.557
33.9600,1.543
34.0000,1.598
34.0400,1.545
34.0800,1.542
34.1200,1.634
34.1600,1.600
34.2000,1.601
34.2400,1.599
34.2800,1.601
34.3200,1.483
34.3600,1.575
34.4000,1.586
34.4400,1.559
34.4800,1.498
34.5200,1.485
34.5600,1.539
34.6000,1.561
34.6400,1.581
34.6800,1.530
34.7200,1.514
34.7600,1.609
34.8000,1.469
34.8400,1.528
34.8800,1.476
34.9200,1.497
34.9600,1.497
35.0000,1.488
35.0400,1.504
35.0800,1.464
35.1200,1.455
35.1600,1.445
35.2000,1.510
35.2400,1.484
35.2800,1.530
35.3200,1.425
35.3600,1.424
35.4000,1.444
35.4400,1.450
35.4800,1.520
35.5200,1.495
35.5600,1.459
35.6000,1.514
35.6400,1.447
35.6800,1.475
35.7200,1.436
35.7600,1.484
35.8000,1.387
35.8400,1.444
35.8800,1.489
35.9200,1.518
35.9600,1.445
36.0000,1.499
36.0400,1.456
36.0800,1.447
36.1200,1.476
36.1600,1.475
36.2000,1.474
36.2400,1.428
36.2800,1.380
36.3200,1.465
36.3600,1.462
36.4000,1.424
36.4400,1.451
36.4800,1.446
36.5200,1.434
36.5600,1.437
36.6000,1.384
36.6400,1.454
36.6800,1.417
36.7200,1.340
36.7600,1.373
36.8000,1.449
36.8400,1.412
36.8800,1.396
36.9200,1.329
36.9600,1.429
37.0000,1.402
37.0400,1.383
37.0800,1.441
37.1200,1.463
37.1600,1.425
37.2000,1.412
37.2400,1.377
37.2800,1.439
37.3200,1.449
37.3600,1.371
37.4000,1.458
37.4400,1.373
37.4800,1.363
37.5200,1.416
37.5600,1.368
37.6000,1.373
37.6400,1.387
37.6800,1.452
37.7200,1.406
37.7600,1.370
37.8000,1.433
37.8400,1.370
37.8800,1.300
37.9200,1.315
37.9600,1.369
38.0000,1.304
38.0400,1.387
38.0800,1.322
38.1200,1.369
38.1600,1.362
38.2000,1.323
38.2400,1.352
38.2800,1.348
38.3200,1.340
38.3600,1.435
38.4000,1.362
38.4400,1.417
38.4800,1.378
38.5200,1.374
38.5600,1.342
38.6000,1.335
38.6400,1.441
38.6800,1.376
38.7200,1.345
38.7600,1.428
38.8000,1.419
38.8400,1.354
38.8800,1.239
38.9200,1.331
38.9600,1.228
39.0000,1.319
39.0400,1.342
39.0800,1.343
39.1200,1.346
39.1600,1.334
39.2000,1.323
39.2400,1.319
39.2800,1.270
39.3200,1.388
39.3600,1.303
39.4000,1.346
39.4400,1.351
39.4800,1.371
39.5200,1.378
39.5600,1.352
39.6000,1.343
39.6400,1.334
39.6800,1.299
39.7200,1.339
39.7600,1.343
39.8000,1.329
39.8400,1.368
39.8800,1.276
39.9200,1.368
39.9600,1.338
40.0000,1.322
40.0400,1.427
40.0800,1.398
40.1200,1.342
40.1600,1.400
40.2000,1.407
40.2400,1.379
40.2800,1.384
40.3200,1.438
40.3600,1.314
40.4000,1.410
40.4400,1.394
40.4800,1.392
40.5200,1.488
40.5600,1.445
40.6000,1.453
40.6400,1.458
40.6800,1.468
40.7200,1.539
40.7600,1.473
40.8000,1.514
40.8400,1.566
40.8800,1.480
40.9200,1.534
40.9600,1.523
41.0000,1.583
41.0400,1.576
41.0800,1.627
41.1200,1.548
41.1600,1.588
41.2000,1.681
41.2400,1.658
41.2800,1.769
41.3200,1.672
41.3600,1.785
41.4000,1.743
41.4400,1.787
41.4800,1.720
41.5200,1.779
41.5600,1.829
41.6000,1.857
41.6400,1.923
41.6800,1.944
41.7200,2.015
41.7600,2.012
41.8000,2.009
41.8400,2.010
41.8800,2.060
41.9200,2.202
41.9600,2.189
42.0000,2.240
42.0400,2.400
42.0800,2.330
42.1200,2.467
42.1600,2.639
42.2000,2.595
42.2400,2.742
42.2800,2.825
42.3200,2.950
42.3600,3.229
42.4000,3.338
42.4400,3.552
42.4800,3.761
42.5200,4.060
42.5600,4.592
42.6000,5.018
42.6400,5.447
42.6800,6.305
42.7200,6.710
42.7600,7.729
42.8000,8.779
42.8400,9.883
42.8800,10.727
42.9200,11.598
42.9600,11.887
43.0000,12.187
43.0400,11.664
43.0800,10.907
43.1200,9.962
43.1600,8.912
43.2000,8.046
43.2400,6.981
43.2800,6.094
43.3200,5.308
43.3600,4.689
43.4000,4.153
43.4400,3.751
43.4800,3.400
43.5200,2.990
43.5600,2.817
43.6000,2.790
43.6400,2.469
43.6800,2.271
43.7200,2.211
43.7600,2.092
43.8000,2.062
43.8400,1.899
43.8800,1.839
43.9200,1.745
43.9600,1.770
44.0000,1.705
44.0400,1.674
44.0800,1.649
44.1200,1.556
44.1600,1.543
44.2000,1.574
44.2400,1.448
44.2800,1.458
44.3200,1.461
44.3600,1.370
44.4000,1.380
44.4400,1.405
44.4800,1.422
44.5200,1.367
44.5600,1.352
44.6000,1.309
44.6400,1.296
44.6800,1.319
44.7200,1.245
44.7600,1.240
44.8000,1.257
44.8400,1.254
44.8800,1.233
44.9200,1.272
44.9600,1.162
45.0000,1.256
45.0400,1.237
45.0800,1.187
45.1200,1.162
45.1600,1.155
45.2000,1.236
45.2400,1.108
45.2800,1.164
45.3200,1.155
45.3600,1.186
45.4000,1.177
45.4400,1.144
45.4800,1.061
45.5200,1.114
45.5600,1.163
45.6000,1.153
45.6400,1.142
45.6800,1.123
45.7200,1.185
45.7600,1.154
45.8000,1.050
45.8400,1.125
45.8800,1.103
45.9200,1.149
45.9600,1.116
46.0000,1.097
46.0400,1.103
46.0800,1.055
46.1200,1.031
46.1600,1.066
46.2000,1.041
46.2400,1.078
46.2800,1.097
46.3200,1.125
46.3600,1.076
46.4000,1.124
46.4400,1.037
46.4800,1.064
46.5200,1.177
46.5600,1.074
46.6000,1.068
46.6400,0.982
46.6800,1.100
46.7200,1.048
46.7600,1.053
46.8000,1.086
46.8400,1.100
46.8800,1.049
46.9200,1.098
46.9600,1.141
47.0000,1.107
47.0400,1.063
47.0800,1.109
47.1200,1.107
47.1600,1.120
47.2000,1.049
47.2400,1.075
47.2800,1.132
47.3200,1.099
47.3600,1.046
47.4000,1.107
47.4400,1.051
47.4800,1.115
47.5200,1.095
47.5600,1.127
47.6000,1.085
47.6400,1.146
47.6800,1.081
47.7200,1.103
47.7600,1.150
47.8000,1.163
47.8400,1.105
47.8800,1.131
47.9200,1.145
47.9600,1.180
48.0000,1.160
48.0400,1.193
48.0800,1.109
48.1200,1.144
48.1600,1.123
48.2000,1.238
48.2400,1.171
48.2800,1.153
48.3200,1.152
48.3600,1.175
48.4000,1.255
48.4400,1.186
48.4800,1.254
48.5200,1.270
48.5600,1.288
48.6000,1.202
48.6400,1.243
48.6800,1.212
48.7200,1.342
48.7600,1.333
48.8000,1.259
48.8400,1.320
48.8800,1.348
48.9200,1.322
48.9600,1.382
49.0000,1.357
49.0400,1.369
49.0800,1.409
49.1200,1.451
49.1600,1.470
49.2000,1.546
49.2400,1.626
49.2800,1.536
49.3200,1.589
49.3600,1.677
49.4000,1.738
49.4400,1.916
49.4800,1.946
49.5200,1.909
49.5600,2.013
49.6000,2.186
49.6400,2.307
49.6800,2.490
49.7200,2.617
49.7600,2.795
49.8000,2.872
49.8400,3.097
49.8800,3.197
49.9200,3.489
49.9600,3.609
50.0000,3.527
50.0400,3.595
50.0800,3.662
50.1200,3.553
50.1600,3.355
50.2000,3.339
50.2400,3.010
50.2800,2.920
50.3200,2.737
50.3600,2.554
50.4000,2.385
50.4400,2.155
50.4800,2.023
50.5200,1.887
50.5600,1.806
50.6000,1.643
50.6400,1.521
50.6800,1.549
50.7200,1.445
50.7600,1.404
50.8000,1.341
50.8400,1.279
50.8800,1.259
50.9200,1.166
50.9600,1.167
51.0000,1.164
51.0400,1.167
51.0800,1.074
51.1200,1.030
51.1600,0.980
51.2000,1.038
51.2400,1.017
51.2800,0.988
51.3200,0.962
51.3600,0.934
51.4000,0.885
51.4400,0.934
51.4800,0.933
51.5200,0.871
51.5600,0.898
51.6000,0.882
51.6400,0.851
51.6800,0.864
51.7200,0.836
51.7600,0.900
51.8000,0.817
51.8400,0.836
51.8800,0.871
51.9200,0.856
51.9600,0.901
52.0000,0.837
52.0400,0.846
52.0800,0.838
52.1200,0.802
52.1600,0.725
52.2000,0.784
52.2400,0.807
52.2800,0.757
52.3200,0.797
52.3600,0.780
52.4000,0.712
52.4400,0.779
52.4800,0.792
52.5200,0.749
52.5600,0.751
52.6000,0.825
52.6400,0.787
52.6800,0.759
52.7200,0.750
52.7600,0.750
52.8000,0.721
52.8400,0.780
52.8800,0.708
52.9200,0.711
52.9600,0.735
53.0000,0.787
53.0400,0.722
53.0800,0.703
53.1200,0.743
53.1600,0.702
53.2000,0.751
53.2400,0.723
53.2800,0.731
53.3200,0.736
53.3600,0.755
53.4000,0.759
53.4400,0.640
53.4800,0.728
53.5200,0.690
53.5600,0.684
53.6000,0.710
53.6400,0.722
53.6800,0.677
53.7200,0.724
53.7600,0.678
53.8000,0.703
53.8400,0.717
53.8800,0.681
53.9200,0.699
53.9600,0.695
54.0000,0.713
54.0400,0.725
54.0800,0.687
54.1200,0.727
54.1600,0.683
54.2000,0.648
54.2400,0.649
54.2800,0.681
54.3200,0.683
54.3600,0.664
54.4000,0.713
54.4400,0.686
54.4800,0.694
54.5200,0.708
54.5600,0.675
54.6000,0.645
54.6400,0.663
54.6800,0.669
54.7200,0.694
54.7600,0.660
54.8000,0.642
54.8400,0.694
54.8800,0.680
54.9200,0.690
54.9600,0.718
55.0000,0.646
55.0400,0.632
55.0800,0.659
55.1200,0.681
55.1600,0.641
55.2000,0.694
55.2400,0.611
55.2800,0.653
55.3200,0.648
55.3600,0.663
55.4000,0.654
55.4400,0.675
55.4800,0.662
55.5200,0.665
55.5600,0.652
55.6000,0.607
55.6400,0.600
55.6800,0.598
55.7200,0.642
55.7600,0.662
55.8000,0.668
55.8400,0.645
55.8800,0.613
55.9200,0.618
55.9600,0.629
56.0000,0.596
56.0400,0.628
56.0800,0.623
56.1200,0.619
56.1600,0.655
56.2000,0.631
56.2400,0.654
56.2800,0.621
56.3200,0.648
56.3600,0.598
56.4000,0.633
56.4400,0.567
56.4800,0.645
56.5200,0.635
56.5600,0.628
56.6000,0.675
56.6400,0.607
56.6800,0.612
56.7200,0.639
56.7600,0.605
56.8000,0.563
56.8400,0.568
56.8800,0.648
56.9200,0.606
56.9600,0.586
57.0000,0.555
57.0400,0.532
57.0800,0.600
57.1200,0.608
57.1600,0.597
57.2000,0.612
57.2400,0.623
57.2800,0.640
57.3200,0.644
57.3600,0.607
57.4000,0.634
57.4400,0.627
57.4800,0.607
57.5200,0.554
57.5600,0.614
57.6000,0.591
57.6400,0.597
57.6800,0.578
57.7200,0.649
57.7600,0.621
57.8000,0.658
57.8400,0.613
57.8800,0.588
57.9200,0.585
57.9600,0.591
58.0000,0.626
58.0400,0.539
58.0800,0.564
58.1200,0.595
58.1600,0.623
58.2000,0.616
58.2400,0.599
58.2800,0.598
58.3200,0.573
58.3600,0.587
58.4000,0.595
58.4400,0.586
58.4800,0.604
58.5200,0.616
58.5600,0.592
58.6000,0.562
58.6400,0.582
58.6800,0.613
58.7200,0.535
58.7600,0.551
58.8000,0.627
58.8400,0.556
58.8800,0.583
58.9200,0.615
58.9600,0.635
59.0000,0.581
59.0400,0.570
59.0800,0.545
59.1200,0.548
59.1600,0.579
59.2000,0.552
59.2400,0.602
59.2800,0.571
59.3200,0.579
59.3600,0.580
59.4000,0.541
59.4400,0.601
59.4800,0.587
59.5200,0.578
59.5600,0.555
59.6000,0.616
59.6400,0.576
59.6800,0.543
59.7200,0.529
59.7600,0.574
59.8000,0.556
59.8400,0.510
59.8800,0.589
59.9200,0.537
59.9600,0.559
60.0000,0.523
60.0400,0.482
60.0800,0.540
60.1200,0.590
60.1600,0.544
60.2000,0.516
60.2400,0.546
60.2800,0.537
60.3200,0.564
60.3600,0.547
60.4000,0.547
60.4400,0.532
60.4800,0.517
60.5200,0.529
60.5600,0.536
60.6000,0.558
60.6400,0.534
60.6800,0.530
60.7200,0.529
60.7600,0.491
60.8000,0.541
60.8400,0.550
60.8800,0.565
60.9200,0.551
60.9600,0.480
61.0000,0.505
61.0400,0.576
61.0800,0.519
61.1200,0.541
61.1600,0.509
61.2000,0.549
61.2400,0.533
61.2800,0.530
61.3200,0.556
61.3600,0.532
61.4000,0.478
61.4400,0.508
61.4800,0.485
61.5200,0.480
61.5600,0.494
61.6000,0.476
61.6400,0.494
61.6800,0.480
61.7200,0.548
61.7600,0.502
61.8000,0.514
61.8400,0.506
61.8800,0.524
61.9200,0.503
61.9600,0.469
62.0000,0.474
62.0400,0.462
62.0800,0.519
62.1200,0.473
62.1600,0.459
62.2000,0.495
62.2400,0.497
62.2800,0.498
62.3200,0.491
62.3600,0.501
62.4000,0.494
62.4400,0.503
62.4800,0.480
62.5200,0.560
62.5600,0.471
62.6000,0.472
62.6400,0.507
62.6800,0.519
62.7200,0.465
62.7600,0.472
62.8000,0.481
62.8400,0.476
62.8800,0.502
62.9200,0.493
62.9600,0.475
63.0000,0.427
63.0400,0.478
63.0800,0.467
63.1200,0.467
63.1600,0.427
63.2000,0.452
63.2400,0.437
63.2800,0.494
63.3200,0.458
63.3600,0.473
63.4000,0.467
63.4400,0.458
63.4800,0.469
63.5200,0.469
63.5600,0.469
63.6000,0.458
63.6400,0.468
63.6800,0.450
63.7200,0.462
63.7600,0.459
63.8000,0.459
63.8400,0.441
63.8800,0.426
63.9200,0.442
63.9600,0.436
64.0000,0.477
64.0400,0.464
64.0800,0.449
64.1200,0.449
64.1600,0.417
64.2000,0.442
64.2400,0.430
64.2800,0.453
64.3200,0.470
64.3600,0.447
64.4000,0.431
64.4400,0.473
64.4800,0.479
64.5200,0.438
64.5600,0.440
64.6000,0.444
64.6400,0.448
64.6800,0.441
64.7200,0.470
64.7600,0.416
64.8000,0.432
64.8400,0.492
64.8800,0.467
64.9200,0.444
64.9600,0.417
65.0000,0.420
65.0400,0.412
65.0800,0.419
65.1200,0.412
65.1600,0.420
65.2000,0.464
65.2400,0.399
65.2800,0.433
65.3200,0.432
65.3600,0.418
65.4000,0.454
65.4400,0.402
65.4800,0.411
65.5200,0.480
65.5600,0.451
65.6000,0.413
65.6400,0.419
65.6800,0.412
65.7200,0.428
65.7600,0.424
65.8000,0.396
65.8400,0.406
65.8800,0.397
65.9200,0.447
65.9600,0.455
66.0000,0.399
66.0400,0.437
66.0800,0.431
66.1200,0.360
66.1600,0.425
66.2000,0.429
66.2400,0.441
66.2800,0.376
66.3200,0.441
66.3600,0.430
66.4000,0.435
66.4400,0.420
66.4800,0.445
66.5200,0.420
66.5600,0.409
66.6000,0.418
66.6400,0.446
66.6800,0.394
66.7200,0.424
66.7600,0.456
66.8000,0.428
66.8400,0.389
66.8800,0.384
66.9200,0.374
66.9600,0.400
67.0000,0.392
67.0400,0.390
67.0800,0.432
67.1200,0.417
67.1600,0.359
67.2000,0.384
67.2400,0.423
67.2800,0.437
67.3200,0.412
67.3600,0.415
67.4000,0.378
67.4400,0.394
67.4800,0.371
67.5200,0.389
67.5600,0.363
67.6000,0.406
67.6400,0.425
67.6800,0.392
67.7200,0.412
67.7600,0.362
67.8000,0.380
67.8400,0.413
67.8800,0.401
67.9200,0.396
67.9600,0.395
68.0000,0.418
68.0400,0.359
68.0800,0.368
68.1200,0.424
68.1600,0.397
68.2000,0.377
68.2400,0.400
68.2800,0.415
68.3200,0.355
68.3600,0.386
68.4000,0.385
68.4400,0.400
68.4800,0.403
68.5200,0.408
68.5600,0.391
68.6000,0.435
68.6400,0.375
68.6800,0.379
68.7200,0.403
68.7600,0.361
68.8000,0.356
68.8400,0.370
68.8800,0.402
68.9200,0.381
68.9600,0.425
69.0000,0.396
69.0400,0.419
69.0800,0.358
69.1200,0.361
69.1600,0.412
69.2000,0.372
69.2400,0.393
69.2800,0.400
69.3200,0.395
69.3600,0.392
69.4000,0.382
69.4400,0.400
69.4800,0.421
69.5200,0.443
69.5600,0.381
69.6000,0.407
69.6400,0.425
69.6800,0.450
69.7200,0.406
69.7600,0.412
69.8000,0.417
69.8400,0.389
69.8800,0.421
69.9200,0.404
69.9600,0.402
70.0000,0.419
70.0400,0.412
70.0800,0.385
70.1200,0.383
70.1600,0.418
70.2000,0.400
70.2400,0.418
70.2800,0.389
70.3200,0.413
70.3600,0.405
70.4000,0.419
70.4400,0.421
70.4800,0.408
70.5200,0.404
70.5600,0.434
70.6000,0.434
70.6400,0.432
70.6800,0.396
70.7200,0.437
70.7600,0.432
70.8000,0.446
70.8400,0.391
70.8800,0.411
70.9200,0.458
70.9600,0.444
71.0000,0.404
71.0400,0.452
71.0800,0.460
71.1200,0.450
71.1600,0.445
71.2000,0.427
71.2400,0.417
71.2800,0.392
71.3200,0.425
71.3600,0.439
71.4000,0.445
71.4400,0.463
71.4800,0.416
71.5200,0.453
71.5600,0.400
71.6000,0.453
71.6400,0.493
71.6800,0.431
71.7200,0.446
71.7600,0.477
71.8000,0.485
71.8400,0.497
71.8800,0.471
71.9200,0.450
71.9600,0.497
72.0000,0.458
72.0400,0.509
72.0800,0.497
72.1200,0.458
72.1600,0.530
72.2000,0.505
72.2400,0.523
72.2800,0.490
72.3200,0.502
72.3600,0.496
72.4000,0.544
72.4400,0.552
72.4800,0.558
72.5200,0.523
72.5600,0.568
72.6000,0.570
72.6400,0.584
72.6800,0.551
72.7200,0.643
72.7600,0.661
72.8000,0.651
72.8400,0.655
72.8800,0.699
72.9200,0.732
72.9600,0.828
73.0000,0.869
73.0400,0.905
73.0800,0.918
73.1200,0.954
73.1600,1.041
73.2000,1.025
73.2400,1.066
73.2800,1.157
73.3200,1.278
73.3600,1.296
73.4000,1.322
73.4400,1.317
73.4800,1.267
73.5200,1.301
73.5600,1.316
73.6000,1.317
73.6400,1.214
73.6800,1.208
73.7200,1.156
73.7600,1.048
73.8000,1.060
73.8400,0.947
73.8800,0.977
73.9200,0.905
73.9600,0.795
74.0000,0.781
74.0400,0.744
74.0800,0.703
74.1200,0.739
74.1600,0.639
74.2000,0.615
74.2400,0.598
74.2800,0.608
74.3200,0.582
74.3600,0.575
74.4000,0.519
74.4400,0.497
74.4800,0.538
74.5200,0.502
74.5600,0.463
74.6000,0.464
74.6400,0.457
74.6800,0.470
74.7200,0.450
74.7600,0.447
74.8000,0.423
74.8400,0.451
74.8800,0.429
74.9200,0.393
74.9600,0.382
75.0000,0.374
75.0400,0.387
75.0800,0.395
75.1200,0.411
75.1600,0.377
75.2000,0.383
75.2400,0.377
75.2800,0.381
75.3200,0.371
75.3600,0.386
75.4000,0.387
75.4400,0.349
75.4800,0.339
75.5200,0.368
75.5600,0.360
75.6000,0.364
75.6400,0.366
75.6800,0.337
75.7200,0.339
75.7600,0.362
75.8000,0.349
75.8400,0.321
75.8800,0.325
75.9200,0.333
75.9600,0.345
76.0000,0.337
76.0400,0.357
76.0800,0.360
76.1200,0.341
76.1600,0.356
76.2000,0.326
76.2400,0.354
76.2800,0.347
76.3200,0.317
76.3600,0.345
76.4000,0.340
76.4400,0.331
76.4800,0.323
76.5200,0.298
76.5600,0.329
76.6000,0.325
76.6400,0.320
76.6800,0.319
76.7200,0.315
76.7600,0.320
76.8000,0.337
76.8400,0.321
76.8800,0.320
76.9200,0.327
76.9600,0.302
77.0000,0.328
77.0400,0.286
77.0800,0.312
77.1200,0.316
77.1600,0.314
77.2000,0.322
77.2400,0.320
77.2800,0.266
77.3200,0.306
77.3600,0.311
77.4000,0.341
77.4400,0.304
77.4800,0.300
77.5200,0.328
77.5600,0.310
77.6000,0.320
77.6400,0.319
77.6800,0.300
77.7200,0.327
77.7600,0.312
77.8000,0.328
77.8400,0.311
77.8800,0.304
77.9200,0.267
77.9600,0.292
78.0000,0.318
78.0400,0.305
78.0800,0.301
78.1200,0.300
78.1600,0.326
78.2000,0.327
78.2400,0.276
78.2800,0.345
78.3200,0.321
78.3600,0.316
78.4000,0.299
78.4400,0.316
78.4800,0.340
78.5200,0.305
78.5600,0.322
78.6000,0.308
78.6400,0.296
78.6800,0.300
78.7200,0.289
78.7600,0.334
78.8000,0.331
78.8400,0.299
78.8800,0.295
78.9200,0.298
78.9600,0.304
79.0000,0.310
79.0400,0.308
79.0800,0.322
79.1200,0.308
79.1600,0.335
79.2000,0.298
79.2400,0.314
79.2800,0.299
79.3200,0.316
79.3600,0.308
79.4000,0.297
79.4400,0.291
79.4800,0.304
79.5200,0.298
79.5600,0.284
79.6000,0.306
79.6400,0.291
79.6800,0.301
79.7200,0.303
79.7600,0.270
79.8000,0.305
79.8400,0.298
79.8800,0.324
79.9200,0.305
79.9600,0.314
80.0000,0.279
