theta,intensity
5.0000,1.879
5.0400,1.998
5.0800,1.913
5.1200,1.989
5.1600,1.853
5.2000,1.920
5.2400,1.879
5.2800,1.877
5.3200,1.915
5.3600,1.798
5.4000,1.891
5.4400,1.816
5.4800,1.873
5.5200,1.870
5.5600,1.820
5.6000,1.855
5.6400,1.826
5.6800,1.842
5.7200,1.850
5.7600,1.789
5.8000,1.727
5.8400,1.838
5.8800,1.740
5.9200,1.779
5.9600,1.742
6.0000,1.670
6.0400,1.720
6.0800,1.691
6.1200,1.700
6.1600,1.646
6.2000,1.645
6.2400,1.580
6.2800,1.610
6.3200,1.618
6.3600,1.617
6.4000,1.570
6.4400,1.571
6.4800,1.545
6.5200,1.532
6.5600,1.546
6.6000,1.509
6.6400,1.540
6.6800,1.493
6.7200,1.462
6.7600,1.475
6.8000,1.480
6.8400,1.508
6.8800,1.533
6.9200,1.454
6.9600,1.436
7.0000,1.396
7.0400,1.459
7.0800,1.441
7.1200,1.466
7.1600,1.469
7.2000,1.420
7.2400,1.468
7.2800,1.465
7.3200,1.427
7.3600,1.455
7.4000,1.418
7.4400,1.441
7.4800,1.436
7.5200,1.381
7.5600,1.439
7.6000,1.374
7.6400,1.428
7.6800,1.435
7.7200,1.385
7.7600,1.419
7.8000,1.407
7.8400,1.418
7.8800,1.478
7.9200,1.397
7.9600,1.441
8.0000,1.424
8.0400,1.392
8.0800,1.450
8.1200,1.405
8.1600,1.415
8.2000,1.362
8.2400,1.396
8.2800,1.428
8.3200,1.407
8.3600,1.454
8.4000,1.390
8.4400,1.418
8.4800,1.370
8.5200,1.425
8.5600,1.416
8.6000,1.398
8.6400,1.387
8.6800,1.435
8.7200,1.339
8.7600,1.390
8.8000,1.375
8.8400,1.378
8.8800,1.380
8.9200,1.443
8.9600,1.410
9.0000,1.328
9.0400,1.356
9.0800,1.402
9.1200,1.375
9.1600,1.404
9.2000,1.362
9.2400,1.373
9.2800,1.364
9.3200,1.364
9.3600,1.343
9.4000,1.362
9.4400,1.373
9.4800,1.333
9.5200,1.360
9.5600,1.366
9.6000,1.299
9.6400,1.381
9.6800,1.385
9.7200,1.392
9.7600,1.364
9.8000,1.289
9.8400,1.316
9.8800,1.383
9.9200,1.342
9.9600,1.409
10.0000,1.350
10.0400,1.359
10.0800,1.339
10.1200,1.364
10.1600,1.382
10.2000,1.321
10.2400,1.292
10.2800,1.330
10.3200,1.373
10.3600,1.331
10.4000,1.311
10.4400,1.345
10.4800,1.301
10.5200,1.319
10.5600,1.316
10.6000,1.343
10.6400,1.333
10.6800,1.330
10.7200,1.323
10.7600,1.294
10.8000,1.317
10.8400,1.378
10.8800,1.326
10.9200,1.371
10.9600,1.328
11.0000,1.331
11.0400,1.284
11.0800,1.290
11.1200,1.281
11.1600,1.323
11.2000,1.274
11.2400,1.297
11.2800,1.324
11.3200,1.330
11.3600,1.292
11.4000,1.315
11.4400,1.333
11.4800,1.331
11.5200,1.307
11.5600,1.280
11.6000,1.302
11.6400,1.299
11.6800,1.322
11.7200,1.297
11.7600,1.299
11.8000,1.290
11.8400,1.308
11.8800,1.339
11.9200,1.272
11.9600,1.310
12.0000,1.268
12.0400,1.278
12.0800,1.281
12.1200,1.257
12.1600,1.280
12.2000,1.242
12.2400,1.267
12.2800,1.284
12.3200,1.290
12.3600,1.298
12.4000,1.272
12.4400,1.260
12.4800,1.272
12.5200,1.246
12.5600,1.275
12.6000,1.240
12.6400,1.256
12.6800,1.292
12.7200,1.258
12.7600,1.308
12.8000,1.238
12.8400,1.291
12.8800,1.219
12.9200,1.233
12.9600,1.247
13.0000,1.251
13.0400,1.239
13.0800,1.221
13.1200,1.233
13.1600,1.251
13.2000,1.253
13.2400,1.205
13.2800,1.281
13.3200,1.245
13.3600,1.234
13.4000,1.245
13.4400,1.287
13.4800,1.218
13.5200,1.237
13.5600,1.230
13.6000,1.218
13.6400,1.238
13.6800,1.240
13.7200,1.252
13.7600,1.226
13.8000,1.165
13.8400,1.201
13.8800,1.186
13.9200,1.283
13.9600,1.221
14.0000,1.228
14.0400,1.242
14.0800,1.211
14.1200,1.208
14.1600,1.224
14.2000,1.253
14.2400,1.273
14.2800,1.249
14.3200,1.212
14.3600,1.210
14.4000,1.212
14.4400,1.224
14.4800,1.208
14.5200,1.215
14.5600,1.192
14.6000,1.223
14.6400,1.199
14.6800,1.186
14.7200,1.209
14.7600,1.214
14.8000,1.163
14.8400,1.196
14.8800,1.177
14.9200,1.166
14.9600,1.229
15.0000,1.171
15.0400,1.190
15.0800,1.198
15.1200,1.218
15.1600,1.143
15.2000,1.198
15.2400,1.185
15.2800,1.159
15.3200,1.178
15.3600,1.183
15.4000,1.172
15.4400,1.209
15.4800,1.199
15.5200,1.140
15.5600,1.221
15.6000,1.171
15.6400,1.210
15.6800,1.214
15.7200,1.157
15.7600,1.229
15.8000,1.163
15.8400,1.182
15.8800,1.206
15.9200,1.159
15.9600,1.156
16.0000,1.199
16.0400,1.208
16.0800,1.177
16.1200,1.111
16.1600,1.198
16.2000,1.160
16.2400,1.170
16.2800,1.154
16.3200,1.191
16.3600,1.156
16.4000,1.177
16.4400,1.190
16.4800,1.158
16.5200,1.134
16.5600,1.133
16.6000,1.146
16.6400,1.125
16.6800,1.137
16.7200,1.192
16.7600,1.121
16.8000,1.139
16.8400,1.163
16.8800,1.128
16.9200,1.149
16.9600,1.175
17.0000,1.144
17.0400,1.129
17.0800,1.133
17.1200,1.078
17.1600,1.146
17.2000,1.163
17.2400,1.167
17.2800,1.130
17.3200,1.143
17.3600,1.166
17.4000,1.154
17.4400,1.143
17.4800,1.145
17.5200,1.156
17.5600,1.097
17.6000,1.151
17.6400,1.126
17.6800,1.089
17.7200,1.135
17.7600,1.133
17.8000,1.127
17.8400,1.130
17.8800,1.175
17.9200,1.104
17.9600,1.182
18.0000,1.140
18.0400,1.095
18.0800,1.146
18.1200,1.133
18.1600,1.122
18.2000,1.090
18.2400,1.144
18.2800,1.133
18.3200,1.091
18.3600,1.139
18.4000,1.123
18.4400,1.140
18.4800,1.101
18.5200,1.140
18.5600,1.141
18.6000,1.108
18.6400,1.144
18.6800,1.128
18.7200,1.107
18.7600,1.106
18.8000,1.127
18.8400,1.139
18.8800,1.104
18.9200,1.139
18.9600,1.120
19.0000,1.096
19.0400,1.078
19.0800,1.118
19.1200,1.123
19.1600,1.106
19.2000,1.104
19.2400,1.183
19.2800,1.077
19.3200,1.103
19.3600,1.088
19.4000,1.102
19.4400,1.125
19.4800,1.092
19.5200,1.083
19.5600,1.077
19.6000,1.121
19.6400,1.084
19.6800,1.110
19.7200,1.101
19.7600,1.120
19.8000,1.083
19.8400,1.118
19.8800,1.087
19.9200,1.131
19.9600,1.068
20.0000,1.114
20.0400,1.125
20.0800,1.049
20.1200,1.121
20.1600,1.127
20.2000,1.112
20.2400,1.137
20.2800,1.161
20.3200,1.084
20.3600,1.091
20.4000,1.088
20.4400,1.074
20.4800,1.067
20.5200,1.125
20.5600,1.082
20.6000,1.082
20.6400,1.050
20.6800,1.079
20.7200,1.073
20.7600,1.046
20.8000,1.082
20.8400,1.074
20.8800,1.095
20.9200,1.068
20.9600,1.081
21.0000,1.081
21.0400,1.067
21.0800,1.044
21.1200,1.064
21.1600,1.073
21.2000,1.080
21.2400,1.080
21.2800,1.095
21.3200,1.058
21.3600,1.044
21.4000,1.016
21.4400,1.083
21.4800,1.041
21.5200,1.047
21.5600,1.020
21.6000,1.022
21.6400,1.044
21.6800,1.026
21.7200,0.989
21.7600,1.035
21.8000,1.055
21.8400,1.030
21.8800,0.984
21.9200,1.013
21.9600,1.033
22.0000,1.027
22.0400,1.061
22.0800,1.014
22.1200,1.005
22.1600,1.043
22.2000,1.040
22.2400,1.054
22.2800,1.038
22.3200,1.006
22.3600,1.025
22.4000,0.993
22.4400,1.048
22.4800,1.031
22.5200,0.996
22.5600,0.991
22.6000,1.005
22.6400,1.004
22.6800,0.989
22.7200,0.962
22.7600,0.983
22.8000,0.938
22.8400,0.977
22.8800,0.949
22.9200,0.941
22.9600,0.984
23.0000,0.922
23.0400,1.002
23.0800,0.941
23.1200,0.942
23.1600,0.974
23.2000,0.945
23.2400,0.999
23.2800,0.946
23.3200,0.948
23.3600,0.968
23.4000,0.968
23.4400,0.935
23.4800,0.963
23.5200,0.938
23.5600,0.922
23.6000,0.935
23.6400,0.905
23.6800,0.970
23.7200,0.938
23.7600,0.903
23.8000,0.965
23.8400,0.937
23.8800,0.883
23.9200,0.899
23.9600,0.897
24.0000,0.905
24.0400,0.901
24.0800,0.881
24.1200,0.929
24.1600,0.881
24.2000,0.877
24.2400,0.895
24.2800,0.917
24.3200,0.859
24.3600,0.870
24.4000,0.850
24.4400,0.901
24.4800,0.876
24.5200,0.925
24.5600,0.896
24.6000,0.891
24.6400,0.874
24.6800,0.859
24.7200,0.881
24.7600,0.903
24.8000,0.861
24.8400,0.840
24.8800,0.874
24.9200,0.863
24.9600,0.878
25.0000,0.895
25.0400,0.857
25.0800,0.819
25.1200,0.849
25.1600,0.832
25.2000,0.835
25.2400,0.850
25.2800,0.829
25.3200,0.813
25.3600,0.831
25.4000,0.818
25.4400,0.828
25.4800,0.865
25.5200,0.832
25.5600,0.857
25.6000,0.836
25.6400,0.801
25.6800,0.850
25.7200,0.810
25.7600,0.841
25.8000,0.816
25.8400,0.777
25.8800,0.794
25.9200,0.816
25.9600,0.821
26.0000,0.815
26.0400,0.792
26.0800,0.824
26.1200,0.807
26.1600,0.788
26.2000,0.795
26.2400,0.783
26.2800,0.752
26.3200,0.799
26.3600,0.765
26.4000,0.761
26.4400,0.804
26.4800,0.784
26.5200,0.751
26.5600,0.794
26.6000,0.765
26.6400,0.786
26.6800,0.813
26.7200,0.755
26.7600,0.725
26.8000,0.743
26.8400,0.758
26.8800,0.729
26.9200,0.768
26.9600,0.755
27.0000,0.794
27.0400,0.791
27.0800,0.790
27.1200,0.731
27.1600,0.745
27.2000,0.779
27.2400,0.768
27.2800,0.700
27.3200,0.751
27.3600,0.755
27.4000,0.695
27.4400,0.708
27.4800,0.758
27.5200,0.764
27.5600,0.731
27.6000,0.733
27.6400,0.720
27.6800,0.722
27.7200,0.725
27.7600,0.693
27.8000,0.733
27.8400,0.704
27.8800,0.723
27.9200,0.717
27.9600,0.708
28.0000,0.691
28.0400,0.680
28.0800,0.708
28.1200,0.673
28.1600,0.689
28.2000,0.668
28.2400,0.723
28.2800,0.656
28.3200,0.679
28.3600,0.705
28.4000,0.708
28.4400,0.691
28.4800,0.729
28.5200,0.663
28.5600,0.662
28.6000,0.698
28.6400,0.686
28.6800,0.665
28.7200,0.679
28.7600,0.724
28.8000,0.637
28.8400,0.653
28.8800,0.709
28.9200,0.684
28.9600,0.703
29.0000,0.655
29.0400,0.643
29.0800,0.667
29.1200,0.692
29.1600,0.718
29.2000,0.713
29.2400,0.665
29.2800,0.660
29.3200,0.600
29.3600,0.624
29.4000,0.656
29.4400,0.663
29.4800,0.640
29.5200,0.637
29.5600,0.676
29.6000,0.650
29.6400,0.692
29.6800,0.668
29.7200,0.673
29.7600,0.659
29.8000,0.629
29.8400,0.665
29.8800,0.622
29.9200,0.616
29.9600,0.638
30.0000,0.633
30.0400,0.622
30.0800,0.618
30.1200,0.623
30.1600,0.582
30.2000,0.661
30.2400,0.645
30.2800,0.639
30.3200,0.643
30.3600,0.601
30.4000,0.624
30.4400,0.599
30.4800,0.614
30.5200,0.611
30.5600,0.619
30.6000,0.616
30.6400,0.623
30.6800,0.653
30.7200,0.599
30.7600,0.639
30.8000,0.622
30.8400,0.584
30.8800,0.605
30.9200,0.595
30.9600,0.592
31.0000,0.605
31.0400,0.602
31.0800,0.574
31.1200,0.578
31.1600,0.601
31.2000,0.624
31.2400,0.633
31.2800,0.566
31.3200,0.606
31.3600,0.600
31.4000,0.632
31.4400,0.605
31.4800,0.590
31.5200,0.571
31.5600,0.605
31.6000,0.576
31.6400,0.594
31.6800,0.582
31.7200,0.566
31.7600,0.607
31.8000,0.593
31.8400,0.561
31.8800,0.609
31.9200,0.563
31.9600,0.584
32.0000,0.574
32.0400,0.566
32.0800,0.571
32.1200,0.569
32.1600,0.565
32.2000,0.550
32.2400,0.585
32.2800,0.565
32.3200,0.564
32.3600,0.552
32.4000,0.574
32.4400,0.546
32.4800,0.570
32.5200,0.553
32.5600,0.558
32.6000,0.578
32.6400,0.553
32.6800,0.584
32.7200,0.564
32.7600,0.550
32.8000,0.567
32.8400,0.554
32.8800,0.546
32.9200,0.515
32.9600,0.554
33.0000,0.582
33.0400,0.545
33.0800,0.521
33.1200,0.537
33.1600,0.554
33.2000,0.585
33.2400,0.562
33.2800,0.560
33.3200,0.536
33.3600,0.569
33.4000,0.567
33.4400,0.507
33.4800,0.531
33.5200,0.547
33.5600,0.550
33.6000,0.500
33.6400,0.518
33.6800,0.521
33.7200,0.529
33.7600,0.527
33.8000,0.524
33.8400,0.541
33.8800,0.516
33.9200,0.541
33.9600,0.473
34.0000,0.517
34.0400,0.522
34.0800,0.508
34.1200,0.518
34.1600,0.475
34.2000,0.496
34.2400,0.492
34.2800,0.529
34.3200,0.529
34.3600,0.522
34.4000,0.502
34.4400,0.498
34.4800,0.506
34.5200,0.495
34.5600,0.513
34.6000,0.510
34.6400,0.522
34.6800,0.520
34.7200,0.495
34.7600,0.531
34.8000,0.508
34.8400,0.514
34.8800,0.506
34.9200,0.498
34.9600,0.500
35.0000,0.510
35.0400,0.535
35.0800,0.482
35.1200,0.507
35.1600,0.508
35.2000,0.514
35.2400,0.494
35.2800,0.503
35.3200,0.518
35.3600,0.508
35.4000,0.522
35.4400,0.490
35.4800,0.472
35.5200,0.490
35.5600,0.512
35.6000,0.500
35.6400,0.479
35.6800,0.480
35.7200,0.485
35.7600,0.461
35.8000,0.494
35.8400,0.464
35.8800,0.506
35.9200,0.492
35.9600,0.506
36.0000,0.499
36.0400,0.522
36.0800,0.501
36.1200,0.499
36.1600,0.456
36.2000,0.486
36.2400,0.510
36.2800,0.500
36.3200,0.460
36.3600,0.487
36.4000,0.515
36.4400,0.544
36.4800,0.495
36.5200,0.485
36.5600,0.519
36.6000,0.498
36.6400,0.467
36.6800,0.525
36.7200,0.490
36.7600,0.502
36.8000,0.532
36.8400,0.510
36.8800,0.525
36.9200,0.466
36.9600,0.486
37.0000,0.501
37.0400,0.493
37.0800,0.516
37.1200,0.509
37.1600,0.540
37.2000,0.488
37.2400,0.536
37.2800,0.518
37.3200,0.508
37.3600,0.517
37.4000,0.514
37.4400,0.550
37.4800,0.528
37.5200,0.604
37.5600,0.571
37.6000,0.597
37.6400,0.625
37.6800,0.657
37.7200,0.718
37.7600,0.748
37.8000,0.825
37.8400,0.950
37.8800,1.048
37.9200,1.245
37.9600,1.680
38.0000,2.233
38.0400,3.288
38.0800,5.340
38.1200,8.181
38.1600,10.084
38.2000,10.140
38.2400,9.053
38.2800,6.987
38.3200,5.097
38.3600,3.345
38.4000,2.217
38.4400,1.650
38.4800,1.297
38.5200,1.090
38.5600,0.907
38.6000,0.833
38.6400,0.752
38.6800,0.722
38.7200,0.651
38.7600,0.654
38.8000,0.583
38.8400,0.573
38.8800,0.539
38.9200,0.536
38.9600,0.560
39.0000,0.538
39.0400,0.546
39.0800,0.500
39.1200,0.504
39.1600,0.475
39.2000,0.456
39.2400,0.466
39.2800,0.473
39.3200,0.465
39.3600,0.489
39.4000,0.472
39.4400,0.458
39.4800,0.451
39.5200,0.472
39.5600,0.492
39.6000,0.415
39.6400,0.428
39.6800,0.434
39.7200,0.404
39.7600,0.410
39.8000,0.454
39.8400,0.402
39.8800,0.441
39.9200,0.437
39.9600,0.440
40.0000,0.432
40.0400,0.440
40.0800,0.411
40.1200,0.427
40.1600,0.443
40.2000,0.416
40.2400,0.420
40.2800,0.447
40.3200,0.444
40.3600,0.412
40.4000,0.417
40.4400,0.396
40.4800,0.399
40.5200,0.398
40.5600,0.426
40.6000,0.394
40.6400,0.389
40.6800,0.425
40.7200,0.391
40.7600,0.418
40.8000,0.404
40.8400,0.419
40.8800,0.393
40.9200,0.414
40.9600,0.406
41.0000,0.413
41.0400,0.432
41.0800,0.389
41.1200,0.371
41.1600,0.396
41.2000,0.388
41.2400,0.403
41.2800,0.368
41.3200,0.370
41.3600,0.384
41.4000,0.393
41.4400,0.382
41.4800,0.386
41.5200,0.400
41.5600,0.416
41.6000,0.378
41.6400,0.387
41.6800,0.394
41.7200,0.403
41.7600,0.374
41.8000,0.403
41.8400,0.372
41.8800,0.384
41.9200,0.364
41.9600,0.373
42.0000,0.368
42.0400,0.386
42.0800,0.373
42.1200,0.427
42.1600,0.409
42.2000,0.406
42.2400,0.412
42.2800,0.413
42.3200,0.394
42.3600,0.366
42.4000,0.380
42.4400,0.388
42.4800,0.385
42.5200,0.389
42.5600,0.418
42.6000,0.404
42.6400,0.405
42.6800,0.401
42.7200,0.380
42.7600,0.403
42.8000,0.419
42.8400,0.413
42.8800,0.401
42.9200,0.411
42.9600,0.414
43.0000,0.425
43.0400,0.439
43.0800,0.473
43.1200,0.474
43.1600,0.514
43.2000,0.665
43.2400,0.751
43.2800,0.916
43.3200,0.974
43.3600,0.991
43.4000,0.953
43.4400,0.860
43.4800,0.738
43.5200,0.664
43.5600,0.602
43.6000,0.551
43.6400,0.532
43.6800,0.550
43.7200,0.529
43.7600,0.520
43.8000,0.538
43.8400,0.546
43.8800,0.586
43.9200,0.624
43.9600,0.689
44.0000,0.706
44.0400,0.815
44.0800,0.904
44.1200,1.061
44.1600,1.303
44.2000,1.599
44.2400,2.128
44.2800,2.789
44.3200,3.375
44.3600,3.740
44.4000,3.734
44.4400,3.314
44.4800,2.849
44.5200,2.335
44.5600,1.822
44.6000,1.426
44.6400,1.131
44.6800,0.967
44.7200,0.808
44.7600,0.684
44.8000,0.648
44.8400,0.583
44.8800,0.564
44.9200,0.538
44.9600,0.470
45.0000,0.444
45.0400,0.418
45.0800,0.425
45.1200,0.407
45.1600,0.391
45.2000,0.375
45.2400,0.361
45.2800,0.399
45.3200,0.366
45.3600,0.375
45.4000,0.351
45.4400,0.346
45.4800,0.338
45.5200,0.375
45.5600,0.367
45.6000,0.358
45.6400,0.361
45.6800,0.344
45.7200,0.357
45.7600,0.327
45.8000,0.312
45.8400,0.341
45.8800,0.311
45.9200,0.328
45.9600,0.345
46.0000,0.311
46.0400,0.302
46.0800,0.310
46.1200,0.310
46.1600,0.316
46.2000,0.322
46.2400,0.309
46.2800,0.307
46.3200,0.314
46.3600,0.320
46.4000,0.304
46.4400,0.294
46.4800,0.310
46.5200,0.296
46.5600,0.306
46.6000,0.292
46.6400,0.307
46.6800,0.302
46.7200,0.311
46.7600,0.290
46.8000,0.301
46.8400,0.289
46.8800,0.313
46.9200,0.286
46.9600,0.285
47.0000,0.269
47.0400,0.291
47.0800,0.311
47.1200,0.308
47.1600,0.287
47.2000,0.290
47.2400,0.274
47.2800,0.288
47.3200,0.307
47.3600,0.279
47.4000,0.302
47.4400,0.313
47.4800,0.300
47.5200,0.309
47.5600,0.299
47.6000,0.280
47.6400,0.296
47.6800,0.282
47.7200,0.279
47.7600,0.284
47.8000,0.296
47.8400,0.277
47.8800,0.276
47.9200,0.283
47.9600,0.274
48.0000,0.272
48.0400,0.271
48.0800,0.284
48.1200,0.273
48.1600,0.271
48.2000,0.289
48.2400,0.272
48.2800,0.270
48.3200,0.280
48.3600,0.297
48.4000,0.268
48.4400,0.250
48.4800,0.294
48.5200,0.286
48.5600,0.277
48.6000,0.279
48.6400,0.277
48.6800,0.259
48.7200,0.287
48.7600,0.261
48.8000,0.261
48.8400,0.235
48.8800,0.243
48.9200,0.280
48.9600,0.258
49.0000,0.276
49.0400,0.258
49.0800,0.267
49.1200,0.264
49.1600,0.272
49.2000,0.273
49.2400,0.266
49.2800,0.283
49.3200,0.248
49.3600,0.287
49.4000,0.280
49.4400,0.260
49.4800,0.279
49.5200,0.285
49.5600,0.270
49.6000,0.263
49.6400,0.259
49.6800,0.261
49.7200,0.267
49.7600,0.261
49.8000,0.284
49.8400,0.245
49.8800,0.256
49.9200,0.281
49.9600,0.263
50.0000,0.271
50.0400,0.289
50.0800,0.274
50.1200,0.282
50.1600,0.291
50.2000,0.280
50.2400,0.297
50.2800,0.358
50.3200,0.369
50.3600,0.365
50.4000,0.446
50.4400,0.432
50.4800,0.455
50.5200,0.430
50.5600,0.419
50.6000,0.391
50.6400,0.362
50.6800,0.325
50.7200,0.310
50.7600,0.309
50.8000,0.302
50.8400,0.314
50.8800,0.279
50.9200,0.262
50.9600,0.264
51.0000,0.279
51.0400,0.275
51.0800,0.257
51.1200,0.226
51.1600,0.268
51.2000,0.245
51.2400,0.252
51.2800,0.254
51.3200,0.245
51.3600,0.248
51.4000,0.251
51.4400,0.224
51.4800,0.216
51.5200,0.246
51.5600,0.241
51.6000,0.225
51.6400,0.249
51.6800,0.265
51.7200,0.228
51.7600,0.256
51.8000,0.243
51.8400,0.233
51.8800,0.222
51.9200,0.246
51.9600,0.254
52.0000,0.254
52.0400,0.235
52.0800,0.228
52.1200,0.225
52.1600,0.242
52.2000,0.246
52.2400,0.237
52.2800,0.242
52.3200,0.249
52.3600,0.233
52.4000,0.230
52.4400,0.214
52.4800,0.234
52.5200,0.260
52.5600,0.231
52.6000,0.232
52.6400,0.229
52.6800,0.228
52.7200,0.223
52.7600,0.245
52.8000,0.220
52.8400,0.209
52.8800,0.217
52.9200,0.233
52.9600,0.235
53.0000,0.219
53.0400,0.237
53.0800,0.229
53.1200,0.228
53.1600,0.210
53.2000,0.209
53.2400,0.232
53.2800,0.246
53.3200,0.242
53.3600,0.243
53.4000,0.223
53.4400,0.213
53.4800,0.246
53.5200,0.224
53.5600,0.224
53.6000,0.226
53.6400,0.209
53.6800,0.210
53.7200,0.220
53.7600,0.226
53.8000,0.208
53.8400,0.231
53.8800,0.206
53.9200,0.211
53.9600,0.238
54.0000,0.238
54.0400,0.214
54.0800,0.223
54.1200,0.207
54.1600,0.217
54.2000,0.222
54.2400,0.225
54.2800,0.233
54.3200,0.239
54.3600,0.210
54.4000,0.219
54.4400,0.194
54.4800,0.229
54.5200,0.227
54.5600,0.215
54.6000,0.221
54.6400,0.216
54.6800,0.207
54.7200,0.223
54.7600,0.207
54.8000,0.203
54.8400,0.220
54.8800,0.223
54.9200,0.211
54.9600,0.222
55.0000,0.201
55.0400,0.204
55.0800,0.214
55.1200,0.200
55.1600,0.204
55.2000,0.224
55.2400,0.237
55.2800,0.225
55.3200,0.196
55.3600,0.212
55.4000,0.215
55.4400,0.222
55.4800,0.201
55.5200,0.213
55.5600,0.182
55.6000,0.199
55.6400,0.213
55.6800,0.209
55.7200,0.215
55.7600,0.206
55.8000,0.196
55.8400,0.207
55.8800,0.214
55.9200,0.202
55.9600,0.189
56.0000,0.192
56.0400,0.205
56.0800,0.188
56.1200,0.212
56.1600,0.214
56.2000,0.223
56.2400,0.201
56.2800,0.213
56.3200,0.194
56.3600,0.183
56.4000,0.213
56.4400,0.201
56.4800,0.235
56.5200,0.196
56.5600,0.201
56.6000,0.227
56.6400,0.207
56.6800,0.214
56.7200,0.204
56.7600,0.216
56.8000,0.208
56.8400,0.209
56.8800,0.219
56.9200,0.244
56.9600,0.202
57.0000,0.198
57.0400,0.193
57.0800,0.203
57.1200,0.211
57.1600,0.185
57.2000,0.199
57.2400,0.191
57.2800,0.200
57.3200,0.189
57.3600,0.214
57.4000,0.207
57.4400,0.195
57.4800,0.204
57.5200,0.196
57.5600,0.222
57.6000,0.195
57.6400,0.205
57.6800,0.191
57.7200,0.204
57.7600,0.199
57.8000,0.212
57.8400,0.215
57.8800,0.195
57.9200,0.187
57.9600,0.193
58.0000,0.208
58.0400,0.194
58.0800,0.190
58.1200,0.200
58.1600,0.171
58.2000,0.211
58.2400,0.207
58.2800,0.202
58.3200,0.205
58.3600,0.203
58.4000,0.197
58.4400,0.207
58.4800,0.200
58.5200,0.197
58.5600,0.192
58.6000,0.205
58.6400,0.216
58.6800,0.188
58.7200,0.176
58.7600,0.201
58.8000,0.208
58.8400,0.194
58.8800,0.187
58.9200,0.200
58.9600,0.176
59.0000,0.201
59.0400,0.213
59.0800,0.184
59.1200,0.171
59.1600,0.200
59.2000,0.190
59.2400,0.203
59.2800,0.190
59.3200,0.216
59.3600,0.190
59.4000,0.177
59.4400,0.183
59.4800,0.210
59.5200,0.213
59.5600,0.199
59.6000,0.194
59.6400,0.208
59.6800,0.205
59.7200,0.216
59.7600,0.196
59.8000,0.206
59.8400,0.211
59.8800,0.200
59.9200,0.211
59.9600,0.197
60.0000,0.211
60.0400,0.187
60.0800,0.198
60.1200,0.203
60.1600,0.174
60.2000,0.194
60.2400,0.204
60.2800,0.209
60.3200,0.196
60.3600,0.200
60.4000,0.195
60.4400,0.189
60.4800,0.174
60.5200,0.185
60.5600,0.195
60.6000,0.197
60.6400,0.192
60.6800,0.197
60.7200,0.199
60.7600,0.184
60.8000,0.200
60.8400,0.193
60.8800,0.186
60.9200,0.196
60.9600,0.182
61.0000,0.182
61.0400,0.194
61.0800,0.185
61.1200,0.195
61.1600,0.191
61.2000,0.194
61.2400,0.183
61.2800,0.198
61.3200,0.185
61.3600,0.192
61.4000,0.202
61.4400,0.181
61.4800,0.189
61.5200,0.186
61.5600,0.187
61.6000,0.205
61.6400,0.209
61.6800,0.212
61.7200,0.207
61.7600,0.196
61.8000,0.190
61.8400,0.199
61.8800,0.208
61.9200,0.206
61.9600,0.191
62.0000,0.198
62.0400,0.195
62.0800,0.170
62.1200,0.198
62.1600,0.198
62.2000,0.194
62.2400,0.207
62.2800,0.186
62.3200,0.199
62.3600,0.208
62.4000,0.205
62.4400,0.189
62.4800,0.205
62.5200,0.189
62.5600,0.216
62.6000,0.213
62.6400,0.196
62.6800,0.205
62.7200,0.201
62.7600,0.219
62.8000,0.226
62.8400,0.194
62.8800,0.190
62.9200,0.217
62.9600,0.223
63.0000,0.217
63.0400,0.212
63.0800,0.199
63.1200,0.218
63.1600,0.215
63.2000,0.241
63.2400,0.230
63.2800,0.232
63.3200,0.221
63.3600,0.230
63.4000,0.250
63.4400,0.238
63.4800,0.241
63.5200,0.234
63.5600,0.225
63.6000,0.236
63.6400,0.228
63.6800,0.261
63.7200,0.229
63.7600,0.259
63.8000,0.283
63.8400,0.279
63.8800,0.270
63.9200,0.280
63.9600,0.275
64.0000,0.297
64.0400,0.305
64.0800,0.347
64.1200,0.355
64.1600,0.392
64.2000,0.436
64.2400,0.488
64.2800,0.597
64.3200,0.670
64.3600,0.887
64.4000,1.153
64.4400,1.485
64.4800,1.768
64.5200,1.996
64.5600,1.981
64.6000,1.782
64.6400,1.592
64.6800,1.564
64.7200,1.384
64.7600,1.185
64.8000,0.962
64.8400,0.748
64.8800,0.630
64.9200,0.523
64.9600,0.492
65.0000,0.417
65.0400,0.404
65.0800,0.386
65.1200,0.350
65.1600,0.327
65.2000,0.308
65.2400,0.320
65.2800,0.291
65.3200,0.286
65.3600,0.278
65.4000,0.268
65.4400,0.258
65.4800,0.296
65.5200,0.269
65.5600,0.277
65.6000,0.274
65.6400,0.269
65.6800,0.261
65.7200,0.263
65.7600,0.257
65.8000,0.253
65.8400,0.256
65.8800,0.246
65.9200,0.252
65.9600,0.266
66.0000,0.266
66.0400,0.267
66.0800,0.238
66.1200,0.282
66.1600,0.276
66.2000,0.260
66.2400,0.298
66.2800,0.283
66.3200,0.272
66.3600,0.270
66.4000,0.292
66.4400,0.288
66.4800,0.253
66.5200,0.273
66.5600,0.284
66.6000,0.294
66.6400,0.304
66.6800,0.309
66.7200,0.290
66.7600,0.289
66.8000,0.297
66.8400,0.290
66.8800,0.320
66.9200,0.297
66.9600,0.310
67.0000,0.335
67.0400,0.318
67.0800,0.334
67.1200,0.317
67.1600,0.320
67.2000,0.326
67.2400,0.316
67.2800,0.313
67.3200,0.328
67.3600,0.356
67.4000,0.332
67.4400,0.333
67.4800,0.357
67.5200,0.329
67.5600,0.377
67.6000,0.352
67.6400,0.377
67.6800,0.366
67.7200,0.384
67.7600,0.395
67.8000,0.431
67.8400,0.380
67.8800,0.390
67.9200,0.411
67.9600,0.402
68.0000,0.422
68.0400,0.435
68.0800,0.456
68.1200,0.461
68.1600,0.471
68.2000,0.461
68.2400,0.456
68.2800,0.515
68.3200,0.497
68.3600,0.524
68.4000,0.533
68.4400,0.563
68.4800,0.564
68.5200,0.600
68.5600,0.621
68.6000,0.675
68.6400,0.716
68.6800,0.798
68.7200,0.997
68.7600,1.179
68.8000,1.419
68.8400,1.546
68.8800,1.587
68.9200,1.766
68.9600,2.123
69.0000,3.310
69.0400,8.039
69.0800,31.380
69.1200,66.867
69.1600,74.825
69.2000,56.727
69.2400,28.392
69.2800,22.636
69.3200,36.767
69.3600,39.864
69.4000,29.816
69.4400,13.054
69.4800,4.276
69.5200,2.252
69.5600,1.726
69.6000,1.344
69.6400,1.220
69.6800,1.059
69.7200,0.926
69.7600,0.840
69.8000,0.786
69.8400,0.730
69.8800,0.727
69.9200,0.680
69.9600,0.643
70.0000,0.585
70.0400,0.575
70.0800,0.559
70.1200,0.549
70.1600,0.577
70.2000,0.560
70.2400,0.516
70.2800,0.498
70.3200,0.489
70.3600,0.476
70.4000,0.457
70.4400,0.489
70.4800,0.438
70.5200,0.436
70.5600,0.422
70.6000,0.420
70.6400,0.428
70.6800,0.393
70.7200,0.391
70.7600,0.401
70.8000,0.397
70.8400,0.396
70.8800,0.353
70.9200,0.378
70.9600,0.346
71.0000,0.361
71.0400,0.360
71.0800,0.320
71.1200,0.350
71.1600,0.362
71.2000,0.336
71.2400,0.329
71.2800,0.316
71.3200,0.304
71.3600,0.288
71.4000,0.283
71.4400,0.326
71.4800,0.277
71.5200,0.294
71.5600,0.299
71.6000,0.294
71.6400,0.269
71.6800,0.291
71.7200,0.272
71.7600,0.300
71.8000,0.266
71.8400,0.280
71.8800,0.277
71.9200,0.265
71.9600,0.242
72.0000,0.243
72.0400,0.255
72.0800,0.256
72.1200,0.258
72.1600,0.255
72.2000,0.239
72.2400,0.240
72.2800,0.243
72.3200,0.225
72.3600,0.227
72.4000,0.266
72.4400,0.235
72.4800,0.238
72.5200,0.233
72.5600,0.243
72.6000,0.246
72.6400,0.204
72.6800,0.207
72.7200,0.198
72.7600,0.222
72.8000,0.216
72.8400,0.214
72.8800,0.235
72.9200,0.223
72.9600,0.212
73.0000,0.223
73.0400,0.237
73.0800,0.231
73.1200,0.215
73.1600,0.214
73.2000,0.218
73.2400,0.237
73.2800,0.220
73.3200,0.223
73.3600,0.198
73.4000,0.212
73.4400,0.207
73.4800,0.209
73.5200,0.224
73.5600,0.224
73.6000,0.212
73.6400,0.196
73.6800,0.213
73.7200,0.218
73.7600,0.213
73.8000,0.192
73.8400,0.211
73.8800,0.215
73.9200,0.226
73.9600,0.234
74.0000,0.246
74.0400,0.283
74.0800,0.273
74.1200,0.275
74.1600,0.253
74.2000,0.262
74.2400,0.263
74.2800,0.256
74.3200,0.253
74.3600,0.249
74.4000,0.231
74.4400,0.238
74.4800,0.208
74.5200,0.209
74.5600,0.201
74.6000,0.200
74.6400,0.188
74.6800,0.179
74.7200,0.187
74.7600,0.204
74.8000,0.180
74.8400,0.193
74.8800,0.193
74.9200,0.188
74.9600,0.183
75.0000,0.178
75.0400,0.177
75.0800,0.190
75.1200,0.181
75.1600,0.186
75.2000,0.182
75.2400,0.188
75.2800,0.194
75.3200,0.178
75.3600,0.173
75.4000,0.206
75.4400,0.212
75.4800,0.195
75.5200,0.191
75.5600,0.179
75.6000,0.202
75.6400,0.191
75.6800,0.187
75.7200,0.178
75.7600,0.190
75.8000,0.203
75.8400,0.176
75.8800,0.182
75.9200,0.174
75.9600,0.178
76.0000,0.173
76.0400,0.179
76.0800,0.177
76.1200,0.188
76.1600,0.185
76.2000,0.204
76.2400,0.210
76.2800,0.178
76.3200,0.197
76.3600,0.201
76.4000,0.211
76.4400,0.207
76.4800,0.215
76.5200,0.208
76.5600,0.216
76.6000,0.222
76.6400,0.211
76.6800,0.238
76.7200,0.208
76.7600,0.231
76.8000,0.244
76.8400,0.244
76.8800,0.258
76.9200,0.279
76.9600,0.290
77.0000,0.294
77.0400,0.356
77.0800,0.368
77.1200,0.368
77.1600,0.454
77.2000,0.495
77.2400,0.620
77.2800,0.676
77.3200,0.859
77.3600,1.115
77.4000,1.351
77.4400,1.607
77.4800,1.807
77.5200,1.807
77.5600,1.616
77.6000,1.497
77.6400,1.350
77.6800,1.333
77.7200,1.282
77.7600,1.135
77.8000,0.899
77.8400,0.761
77.8800,0.591
77.9200,0.530
77.9600,0.437
78.0000,0.386
78.0400,0.363
78.0800,0.310
78.1200,0.326
78.1600,0.293
78.2000,0.249
78.2400,0.246
78.2800,0.257
78.3200,0.229
78.3600,0.226
78.4000,0.217
78.4400,0.207
78.4800,0.223
78.5200,0.206
78.5600,0.204
78.6000,0.201
78.6400,0.188
78.6800,0.196
78.7200,0.192
78.7600,0.175
78.8000,0.182
78.8400,0.188
78.8800,0.186
78.9200,0.170
78.9600,0.170
79.0000,0.195
79.0400,0.164
79.0800,0.185
79.1200,0.180
79.1600,0.160
79.2000,0.161
79.2400,0.185
79.2800,0.176
79.3200,0.158
79.3600,0.145
79.4000,0.167
79.4400,0.170
79.4800,0.164
79.5200,0.151
79.5600,0.145
79.6000,0.157
79.6400,0.162
79.6800,0.152
79.7200,0.152
79.7600,0.156
79.8000,0.164
79.8400,0.176
79.8800,0.158
79.9200,0.166
79.9600,0.149
80.0000,0.158
