theta,intensity
5.0000,7.243
5.0400,7.025
5.0800,6.859
5.1200,6.967
5.1600,6.609
5.2000,6.845
5.2400,6.582
5.2800,6.334
5.3200,6.487
5.3600,6.409
5.4000,6.130
5.4400,6.335
5.4800,6.058
5.5200,5.946
5.5600,5.694
5.6000,5.840
5.6400,5.828
5.6800,5.429
5.7200,5.387
5.7600,5.206
5.8000,5.142
5.8400,5.096
5.8800,5.173
5.9200,5.195
5.9600,5.005
6.0000,4.952
6.0400,4.874
6.0800,4.670
6.1200,4.551
6.1600,4.612
6.2000,4.533
6.2400,4.507
6.2800,4.335
6.3200,4.268
6.3600,4.294
6.4000,4.240
6.4400,4.495
6.4800,4.329
6.5200,4.226
6.5600,4.251
6.6000,4.113
6.6400,4.249
6.6800,4.366
6.7200,4.183
6.7600,4.233
6.8000,4.090
6.8400,4.306
6.8800,4.185
6.9200,4.153
6.9600,4.289
7.0000,4.145
7.0400,4.261
7.0800,4.078
7.1200,4.069
7.1600,4.105
7.2000,4.109
7.2400,4.073
7.2800,4.070
7.3200,4.130
7.3600,4.048
7.4000,4.129
7.4400,4.102
7.4800,3.939
7.5200,3.910
7.5600,4.059
7.6000,3.989
7.6400,4.100
7.6800,4.079
7.7200,4.093
7.7600,4.024
7.8000,3.759
7.8400,4.008
7.8800,3.959
7.9200,3.927
7.9600,3.958
8.0000,4.056
8.0400,4.167
8.0800,3.859
8.1200,3.816
8.1600,3.911
8.2000,4.186
8.2400,3.836
8.2800,3.795
8.3200,3.922
8.3600,3.879
8.4000,3.897
8.4400,3.941
8.4800,3.888
8.5200,3.894
8.5600,3.638
8.6000,3.966
8.6400,3.835
8.6800,3.868
8.7200,3.769
8.7600,3.943
8.8000,3.751
8.8400,3.676
8.8800,3.801
8.9200,3.729
8.9600,3.936
9.0000,3.776
9.0400,3.828
9.0800,4.067
9.1200,3.797
9.1600,3.809
9.2000,3.616
9.2400,3.830
9.2800,3.849
9.3200,3.648
9.3600,3.747
9.4000,3.739
9.4400,3.827
9.4800,3.766
9.5200,3.612
9.5600,3.745
9.6000,3.722
9.6400,3.678
9.6800,3.899
9.7200,3.873
9.7600,3.758
9.8000,3.806
9.8400,3.746
9.8800,3.842
9.9200,3.830
9.9600,3.641
10.0000,3.754
10.0400,3.846
10.0800,3.656
10.1200,3.717
10.1600,3.673
10.2000,3.637
10.2400,3.645
10.2800,3.602
10.3200,3.497
10.3600,3.701
10.4000,3.671
10.4400,3.578
10.4800,3.737
10.5200,3.606
10.5600,3.513
10.6000,3.576
10.6400,3.587
10.6800,3.689
10.7200,3.739
10.7600,3.565
10.8000,3.662
10.8400,3.559
10.8800,3.492
10.9200,3.503
10.9600,3.541
11.0000,3.590
11.0400,3.390
11.0800,3.608
11.1200,3.521
11.1600,3.624
11.2000,3.505
11.2400,3.463
11.2800,3.545
11.3200,3.493
11.3600,3.558
11.4000,3.502
11.4400,3.452
11.4800,3.591
11.5200,3.455
11.5600,3.534
11.6000,3.586
11.6400,3.476
11.6800,3.507
11.7200,3.761
11.7600,3.456
11.8000,3.508
11.8400,3.438
11.8800,3.632
11.9200,3.550
11.9600,3.395
12.0000,3.658
12.0400,3.473
12.0800,3.567
12.1200,3.361
12.1600,3.332
12.2000,3.474
12.2400,3.369
12.2800,3.393
12.3200,3.368
12.3600,3.474
12.4000,3.534
12.4400,3.522
12.4800,3.346
12.5200,3.407
12.5600,3.418
12.6000,3.516
12.6400,3.482
12.6800,3.357
12.7200,3.282
12.7600,3.444
12.8000,3.410
12.8400,3.530
12.8800,3.255
12.9200,3.394
12.9600,3.478
13.0000,3.389
13.0400,3.315
13.0800,3.316
13.1200,3.322
13.1600,3.208
13.2000,3.370
13.2400,3.218
13.2800,3.333
13.3200,3.419
13.3600,3.327
13.4000,3.274
13.4400,3.336
13.4800,3.431
13.5200,3.182
13.5600,3.385
13.6000,3.242
13.6400,3.253
13.6800,3.297
13.7200,3.329
13.7600,3.385
13.8000,3.458
13.8400,3.272
13.8800,3.271
13.9200,3.217
13.9600,3.213
14.0000,3.279
14.0400,3.345
14.0800,3.239
14.1200,3.351
14.1600,3.176
14.2000,3.143
14.2400,3.208
14.2800,3.163
14.3200,3.273
14.3600,3.074
14.4000,3.178
14.4400,3.238
14.4800,3.376
14.5200,3.199
14.5600,3.159
14.6000,3.257
14.6400,3.279
14.6800,3.171
14.7200,3.359
14.7600,3.140
14.8000,3.145
14.8400,3.185
14.8800,2.987
14.9200,3.222
14.9600,3.152
15.0000,3.152
15.0400,3.207
15.0800,3.076
15.1200,3.299
15.1600,3.167
15.2000,3.123
15.2400,3.077
15.2800,3.040
15.3200,3.114
15.3600,3.093
15.4000,3.231
15.4400,3.224
15.4800,3.173
15.5200,3.042
15.5600,3.095
15.6000,3.201
15.6400,3.179
15.6800,3.186
15.7200,3.157
15.7600,2.951
15.8000,3.153
15.8400,3.113
15.8800,3.174
15.9200,3.098
15.9600,3.097
16.0000,3.104
16.0400,2.974
16.0800,3.052
16.1200,3.077
16.1600,3.203
16.2000,3.218
16.2400,3.107
16.2800,2.975
16.3200,3.041
16.3600,2.984
16.4000,2.947
16.4400,3.034
16.4800,3.043
16.5200,3.038
16.5600,2.948
16.6000,3.211
16.6400,3.130
16.6800,3.050
16.7200,3.015
16.7600,3.018
16.8000,3.047
16.8400,2.900
16.8800,3.044
16.9200,3.117
16.9600,3.063
17.0000,3.016
17.0400,2.956
17.0800,2.965
17.1200,3.199
17.1600,2.964
17.2000,2.986
17.2400,3.098
17.2800,3.035
17.3200,3.099
17.3600,2.926
17.4000,2.917
17.4400,2.823
17.4800,2.939
17.5200,2.996
17.5600,2.928
17.6000,2.942
17.6400,2.923
17.6800,2.956
17.7200,2.940
17.7600,2.898
17.8000,2.917
17.8400,2.974
17.8800,2.983
17.9200,2.943
17.9600,2.886
18.0000,2.958
18.0400,2.818
18.0800,2.911
18.1200,2.804
18.1600,2.976
18.2000,2.846
18.2400,2.887
18.2800,2.942
18.3200,3.014
18.3600,3.083
18.4000,2.889
18.4400,2.902
18.4800,2.951
18.5200,2.939
18.5600,3.025
18.6000,2.877
18.6400,2.914
18.6800,2.810
18.7200,2.850
18.7600,2.777
18.8000,2.820
18.8400,2.831
18.8800,2.881
18.9200,2.822
18.9600,2.832
19.0000,2.738
19.0400,2.897
19.0800,2.768
19.1200,2.845
19.1600,2.740
19.2000,2.907
19.2400,2.829
19.2800,2.688
19.3200,2.831
19.3600,2.957
19.4000,2.762
19.4400,2.771
19.4800,2.625
19.5200,2.786
19.5600,2.753
19.6000,2.696
19.6400,2.669
19.6800,2.751
19.7200,2.756
19.7600,2.774
19.8000,2.629
19.8400,2.708
19.8800,2.749
19.9200,2.750
19.9600,2.527
20.0000,2.768
20.0400,2.727
20.0800,2.642
20.1200,2.710
20.1600,2.782
20.2000,2.632
20.2400,2.655
20.2800,2.658
20.3200,2.715
20.3600,2.736
20.4000,2.630
20.4400,2.691
20.4800,2.653
20.5200,2.765
20.5600,2.693
20.6000,2.697
20.6400,2.729
20.6800,2.695
20.7200,2.550
20.7600,2.682
20.8000,2.585
20.8400,2.719
20.8800,2.753
20.9200,2.720
20.9600,2.639
21.0000,2.593
21.0400,2.613
21.0800,2.570
21.1200,2.877
21.1600,2.699
21.2000,2.657
21.2400,2.620
21.2800,2.615
21.3200,2.731
21.3600,2.637
21.4000,2.664
21.4400,2.663
21.4800,2.626
21.5200,2.514
21.5600,2.615
21.6000,2.517
21.6400,2.506
21.6800,2.474
21.7200,2.511
21.7600,2.533
21.8000,2.514
21.8400,2.474
21.8800,2.478
21.9200,2.473
21.9600,2.462
22.0000,2.659
22.0400,2.579
22.0800,2.631
22.1200,2.584
22.1600,2.504
22.2000,2.460
22.2400,2.538
22.2800,2.453
22.3200,2.520
22.3600,2.476
22.4000,2.395
22.4400,2.535
22.4800,2.555
22.5200,2.448
22.5600,2.345
22.6000,2.469
22.6400,2.368
22.6800,2.408
22.7200,2.538
22.7600,2.461
22.8000,2.517
22.8400,2.468
22.8800,2.383
22.9200,2.548
22.9600,2.411
23.0000,2.555
23.0400,2.401
23.0800,2.514
23.1200,2.386
23.1600,2.549
23.2000,2.415
23.2400,2.388
23.2800,2.525
23.3200,2.460
23.3600,2.446
23.4000,2.406
23.4400,2.407
23.4800,2.525
23.5200,2.417
23.5600,2.426
23.6000,2.418
23.6400,2.470
23.6800,2.510
23.7200,2.307
23.7600,2.374
23.8000,2.344
23.8400,2.385
23.8800,2.421
23.9200,2.503
23.9600,2.303
24.0000,2.335
24.0400,2.449
24.0800,2.355
24.1200,2.367
24.1600,2.375
24.2000,2.433
24.2400,2.431
24.2800,2.396
24.3200,2.388
24.3600,2.477
24.4000,2.270
24.4400,2.470
24.4800,2.284
24.5200,2.317
24.5600,2.341
24.6000,2.341
24.6400,2.417
24.6800,2.359
24.7200,2.376
24.7600,2.317
24.8000,2.343
24.8400,2.337
24.8800,2.421
24.9200,2.266
24.9600,2.287
25.0000,2.322
25.0400,2.283
25.0800,2.268
25.1200,2.294
25.1600,2.344
25.2000,2.262
25.2400,2.250
25.2800,2.307
25.3200,2.229
25.3600,2.284
25.4000,2.226
25.4400,2.279
25.4800,2.373
25.5200,2.315
25.5600,2.357
25.6000,2.329
25.6400,2.296
25.6800,2.214
25.7200,2.332
25.7600,2.366
25.8000,2.266
25.8400,2.214
25.8800,2.327
25.9200,2.231
25.9600,2.220
26.0000,2.325
26.0400,2.273
26.0800,2.172
26.1200,2.327
26.1600,2.334
26.2000,2.254
26.2400,2.052
26.2800,2.237
26.3200,2.188
26.3600,2.179
26.4000,2.242
26.4400,2.158
26.4800,2.222
26.5200,2.248
26.5600,2.108
26.6000,2.210
26.6400,2.073
26.6800,2.196
26.7200,2.260
26.7600,2.251
26.8000,2.199
26.8400,2.095
26.8800,2.207
26.9200,2.114
26.9600,2.242
27.0000,2.137
27.0400,2.238
27.0800,2.202
27.1200,2.305
27.1600,2.149
27.2000,2.290
27.2400,2.114
27.2800,2.081
27.3200,2.249
27.3600,2.147
27.4000,2.152
27.4400,2.203
27.4800,2.174
27.5200,2.144
27.5600,2.255
27.6000,2.097
27.6400,2.131
27.6800,2.173
27.7200,2.049
27.7600,2.258
27.8000,2.164
27.8400,2.261
27.8800,2.252
27.9200,2.292
27.9600,2.254
28.0000,2.262
28.0400,2.384
28.0800,2.217
28.1200,2.345
28.1600,2.257
28.2000,2.250
28.2400,2.327
28.2800,2.314
28.3200,2.280
28.3600,2.338
28.4000,2.255
28.4400,2.333
28.4800,2.313
28.5200,2.280
28.5600,2.329
28.6000,2.243
28.6400,2.241
28.6800,2.284
28.7200,2.222
28.7600,2.367
28.8000,2.028
28.8400,2.190
28.8800,2.123
28.9200,2.238
28.9600,2.069
29.0000,2.051
29.0400,2.105
29.0800,2.227
29.1200,2.108
29.1600,2.193
29.2000,2.223
29.2400,2.070
29.2800,2.081
29.3200,2.022
29.3600,2.050
29.4000,1.964
29.4400,2.101
29.4800,2.070
29.5200,2.090
29.5600,1.878
29.6000,2.083
29.6400,2.006
29.6800,1.912
29.7200,1.928
29.7600,2.007
29.8000,1.956
29.8400,1.972
29.8800,2.066
29.9200,2.167
29.9600,1.984
30.0000,2.031
30.0400,1.959
30.0800,1.897
30.1200,1.969
30.1600,1.920
30.2000,1.835
30.2400,2.084
30.2800,2.011
30.3200,1.906
30.3600,1.951
30.4000,1.796
30.4400,1.959
30.4800,1.928
30.5200,1.804
30.5600,1.838
30.6000,1.869
30.6400,1.825
30.6800,1.930
30.7200,1.878
30.7600,1.756
30.8000,1.851
30.8400,1.862
30.8800,1.819
30.9200,1.784
30.9600,1.763
31.0000,1.787
31.0400,1.809
31.0800,1.810
31.1200,1.768
31.1600,1.851
31.2000,1.783
31.2400,1.747
31.2800,1.740
31.3200,1.630
31.3600,1.827
31.4000,1.811
31.4400,1.746
31.4800,1.770
31.5200,1.858
31.5600,1.771
31.6000,1.769
31.6400,1.752
31.6800,1.803
31.7200,1.846
31.7600,1.715
31.8000,1.718
31.8400,1.723
31.8800,1.728
31.9200,1.727
31.9600,1.658
32.0000,1.772
32.0400,1.816
32.0800,1.689
32.1200,1.748
32.1600,1.596
32.2000,1.701
32.2400,1.696
32.2800,1.632
32.3200,1.730
32.3600,1.737
32.4000,1.714
32.4400,1.603
32.4800,1.652
32.5200,1.635
32.5600,1.508
32.6000,1.746
32.6400,1.653
32.6800,1.675
32.7200,1.650
32.7600,1.675
32.8000,1.606
32.8400,1.648
32.8800,1.667
32.9200,1.635
32.9600,1.642
33.0000,1.596
33.0400,1.679
33.0800,1.553
33.1200,1.628
33.1600,1.560
33.2000,1.594
33.2400,1.561
33.2800,1.569
33.3200,1.581
33.3600,1.653
33.4000,1.543
33.4400,1.710
33.4800,1.541
33.5200,1.521
33.5600,1.517
33.6000,1.643
33.6400,1.622
33.6800,1.600
33.7200,1.584
33.7600,1.646
33.8000,1.587
33.8400,1.613
33.8800,1.601
33.9200,1.557
33.9600,1.607
34.0000,1.536
34.0400,1.556
34.0800,1.567
34.1200,1.612
34.1600,1.595
34.2000,1.548
34.2400,1.505
34.2800,1.478
34.3200,1.447
34.3600,1.528
34.4000,1.495
34.4400,1.480
34.4800,1.570
34.5200,1.590
34.5600,1.502
34.6000,1.569
34.6400,1.463
34.6800,1.559
34.7200,1.458
34.7600,1.484
34.8000,1.442
34.8400,1.495
34.8800,1.447
34.9200,1.548
34.9600,1.535
35.0000,1.502
35.0400,1.597
35.0800,1.482
35.1200,1.466
35.1600,1.434
35.2000,1.504
35.2400,1.495
35.2800,1.470
35.3200,1.431
35.3600,1.431
35.4000,1.462
35.4400,1.507
35.4800,1.495
35.5200,1.576
35.5600,1.518
35.6000,1.446
35.6400,1.393
35.6800,1.387
35.7200,1.415
35.7600,1.449
35.8000,1.414
35.8400,1.388
35.8800,1.392
35.9200,1.370
35.9600,1.447
36.0000,1.484
36.0400,1.433
36.0800,1.400
36.1200,1.452
36.1600,1.458
36.2000,1.460
36.2400,1.429
36.2800,1.467
36.3200,1.416
36.3600,1.392
36.4000,1.430
36.4400,1.324
36.4800,1.500
36.5200,1.460
36.5600,1.434
36.6000,1.338
36.6400,1.396
36.6800,1.465
36.7200,1.330
36.7600,1.386
36.8000,1.442
36.8400,1.309
36.8800,1.382
36.9200,1.366
36.9600,1.444
37.0000,1.420
37.0400,1.429
37.0800,1.441
37.1200,1.380
37.1600,1.444
37.2000,1.409
37.2400,1.477
37.2800,1.487
37.3200,1.505
37.3600,1.447
37.4000,1.514
37.4400,1.455
37.4800,1.454
37.5200,1.583
37.5600,1.362
37.6000,1.470
37.6400,1.395
37.6800,1.552
37.7200,1.463
37.7600,1.580
37.8000,1.557
37.8400,1.578
37.8800,1.528
37.9200,1.699
37.9600,1.589
38.0000,1.649
38.0400,1.780
38.0800,1.960
38.1200,2.248
38.1600,2.472
38.2000,2.692
38.2400,3.245
38.2800,3.531
38.3200,3.952
38.3600,4.234
38.4000,4.711
38.4400,4.990
38.4800,5.441
38.5200,5.633
38.5600,5.582
38.6000,5.865
38.6400,5.795
38.6800,5.622
38.7200,5.494
38.7600,5.380
38.8000,4.974
38.8400,4.975
38.8800,4.635
38.9200,4.180
38.9600,4.031
39.0000,3.737
39.0400,3.523
39.0800,3.259
39.1200,3.095
39.1600,2.942
39.2000,2.781
39.2400,2.721
39.2800,2.589
39.3200,2.324
39.3600,2.329
39.4000,2.292
39.4400,2.197
39.4800,2.256
39.5200,2.058
39.5600,2.000
39.6000,2.008
39.6400,1.948
39.6800,2.101
39.7200,1.925
39.7600,1.956
39.8000,1.983
39.8400,1.912
39.8800,1.940
39.9200,1.923
39.9600,1.971
40.0000,1.907
40.0400,1.842
40.0800,1.798
40.1200,1.791
40.1600,1.610
40.2000,1.621
40.2400,1.619
40.2800,1.561
40.3200,1.517
40.3600,1.503
40.4000,1.532
40.4400,1.361
40.4800,1.387
40.5200,1.415
40.5600,1.345
40.6000,1.295
40.6400,1.276
40.6800,1.223
40.7200,1.310
40.7600,1.256
40.8000,1.221
40.8400,1.207
40.8800,1.182
40.9200,1.189
40.9600,1.249
41.0000,1.215
41.0400,1.240
41.0800,1.229
41.1200,1.169
41.1600,1.196
41.2000,1.137
41.2400,1.197
41.2800,1.153
41.3200,1.137
41.3600,1.207
41.4000,1.196
41.4400,1.174
41.4800,1.164
41.5200,1.117
41.5600,1.183
41.6000,1.212
41.6400,1.127
41.6800,1.077
41.7200,1.100
41.7600,1.161
41.8000,1.164
41.8400,1.044
41.8800,1.039
41.9200,1.225
41.9600,1.133
42.0000,1.172
42.0400,1.092
42.0800,1.186
42.1200,1.196
42.1600,1.223
42.2000,1.167
42.2400,1.200
42.2800,1.129
42.3200,1.112
42.3600,1.160
42.4000,1.130
42.4400,1.086
42.4800,1.069
42.5200,1.112
42.5600,1.090
42.6000,1.093
42.6400,1.173
42.6800,1.058
42.7200,1.134
42.7600,1.123
42.8000,1.139
42.8400,1.042
42.8800,1.117
42.9200,1.169
42.9600,1.107
43.0000,1.087
43.0400,1.132
43.0800,1.043
43.1200,1.035
43.1600,1.046
43.2000,1.154
43.2400,1.073
43.2800,1.168
43.3200,1.118
43.3600,1.095
43.4000,1.111
43.4400,1.189
43.4800,1.129
43.5200,1.189
43.5600,1.168
43.6000,1.004
43.6400,1.140
43.6800,1.129
43.7200,1.128
43.7600,1.140
43.8000,1.107
43.8400,1.167
43.8800,1.076
43.9200,1.184
43.9600,1.141
44.0000,1.113
44.0400,1.154
44.0800,1.215
44.1200,1.176
44.1600,1.267
44.2000,1.237
44.2400,1.310
44.2800,1.441
44.3200,1.500
44.3600,1.597
44.4000,1.578
44.4400,1.751
44.4800,1.853
44.5200,1.969
44.5600,2.032
44.6000,2.126
44.6400,2.244
44.6800,2.371
44.7200,2.380
44.7600,2.267
44.8000,2.561
44.8400,2.602
44.8800,2.536
44.9200,2.582
44.9600,2.519
45.0000,2.551
45.0400,2.298
45.0800,2.312
45.1200,2.304
45.1600,2.322
45.2000,2.062
45.2400,2.084
45.2800,2.042
45.3200,1.959
45.3600,1.855
45.4000,1.738
45.4400,1.765
45.4800,1.662
45.5200,1.604
45.5600,1.591
45.6000,1.549
45.6400,1.551
45.6800,1.386
45.7200,1.355
45.7600,1.356
45.8000,1.235
45.8400,1.323
45.8800,1.304
45.9200,1.241
45.9600,1.205
46.0000,1.231
46.0400,1.290
46.0800,1.153
46.1200,1.166
46.1600,1.246
46.2000,1.172
46.2400,1.190
46.2800,1.161
46.3200,1.210
46.3600,1.202
46.4000,1.136
46.4400,1.125
46.4800,1.156
46.5200,1.183
46.5600,1.102
46.6000,1.086
46.6400,1.109
46.6800,1.072
46.7200,1.174
46.7600,1.075
46.8000,1.099
46.8400,1.017
46.8800,1.002
46.9200,0.967
46.9600,1.011
47.0000,1.007
47.0400,1.037
47.0800,0.990
47.1200,1.024
47.1600,0.904
47.2000,0.936
47.2400,1.058
47.2800,0.951
47.3200,0.939
47.3600,0.932
47.4000,0.927
47.4400,0.907
47.4800,0.868
47.5200,0.896
47.5600,0.904
47.6000,0.872
47.6400,0.869
47.6800,0.915
47.7200,0.887
47.7600,0.904
47.8000,0.882
47.8400,0.822
47.8800,0.916
47.9200,0.869
47.9600,0.827
48.0000,0.897
48.0400,0.933
48.0800,0.901
48.1200,0.842
48.1600,0.844
48.2000,0.859
48.2400,0.829
48.2800,0.813
48.3200,0.825
48.3600,0.830
48.4000,0.778
48.4400,0.836
48.4800,0.861
48.5200,0.816
48.5600,0.823
48.6000,0.803
48.6400,0.832
48.6800,0.853
48.7200,0.843
48.7600,0.837
48.8000,0.836
48.8400,0.827
48.8800,0.752
48.9200,0.823
48.9600,0.784
49.0000,0.850
49.0400,0.815
49.0800,0.794
49.1200,0.845
49.1600,0.860
49.2000,0.825
49.2400,0.784
49.2800,0.780
49.3200,0.841
49.3600,0.796
49.4000,0.883
49.4400,0.794
49.4800,0.843
49.5200,0.811
49.5600,0.762
49.6000,0.775
49.6400,0.799
49.6800,0.802
49.7200,0.855
49.7600,0.848
49.8000,0.796
49.8400,0.790
49.8800,0.755
49.9200,0.755
49.9600,0.737
50.0000,0.760
50.0400,0.763
50.0800,0.784
50.1200,0.746
50.1600,0.720
50.2000,0.829
50.2400,0.830
50.2800,0.738
50.3200,0.808
50.3600,0.731
50.4000,0.778
50.4400,0.721
50.4800,0.677
50.5200,0.743
50.5600,0.749
50.6000,0.679
50.6400,0.775
50.6800,0.739
50.7200,0.748
50.7600,0.787
50.8000,0.728
50.8400,0.781
50.8800,0.768
50.9200,0.804
50.9600,0.773
51.0000,0.743
51.0400,0.752
51.0800,0.782
51.1200,0.736
51.1600,0.717
51.2000,0.685
51.2400,0.753
51.2800,0.703
51.3200,0.715
51.3600,0.696
51.4000,0.718
51.4400,0.711
51.4800,0.762
51.5200,0.723
51.5600,0.693
51.6000,0.744
51.6400,0.730
51.6800,0.716
51.7200,0.711
51.7600,0.754
51.8000,0.691
51.8400,0.746
51.8800,0.698
51.9200,0.699
51.9600,0.787
52.0000,0.730
52.0400,0.669
52.0800,0.635
52.1200,0.667
52.1600,0.693
52.2000,0.709
52.2400,0.722
52.2800,0.699
52.3200,0.671
52.3600,0.707
52.4000,0.726
52.4400,0.778
52.4800,0.697
52.5200,0.701
52.5600,0.602
52.6000,0.694
52.6400,0.683
52.6800,0.709
52.7200,0.738
52.7600,0.739
52.8000,0.729
52.8400,0.714
52.8800,0.711
52.9200,0.686
52.9600,0.691
53.0000,0.732
53.0400,0.689
53.0800,0.674
53.1200,0.709
53.1600,0.644
53.2000,0.698
53.2400,0.691
53.2800,0.621
53.3200,0.676
53.3600,0.643
53.4000,0.705
53.4400,0.725
53.4800,0.704
53.5200,0.674
53.5600,0.630
53.6000,0.706
53.6400,0.657
53.6800,0.702
53.7200,0.730
53.7600,0.686
53.8000,0.654
53.8400,0.681
53.8800,0.636
53.9200,0.600
53.9600,0.645
54.0000,0.653
54.0400,0.700
54.0800,0.659
54.1200,0.698
54.1600,0.678
54.2000,0.589
54.2400,0.636
54.2800,0.652
54.3200,0.664
54.3600,0.676
54.4000,0.687
54.4400,0.683
54.4800,0.634
54.5200,0.629
54.5600,0.659
54.6000,0.671
54.6400,0.676
54.6800,0.680
54.7200,0.676
54.7600,0.653
54.8000,0.615
54.8400,0.579
54.8800,0.645
54.9200,0.682
54.9600,0.676
55.0000,0.604
55.0400,0.680
55.0800,0.622
55.1200,0.677
55.1600,0.616
55.2000,0.660
55.2400,0.631
55.2800,0.644
55.3200,0.622
55.3600,0.653
55.4000,0.598
55.4400,0.642
55.4800,0.636
55.5200,0.690
55.5600,0.587
55.6000,0.697
55.6400,0.663
55.6800,0.624
55.7200,0.570
55.7600,0.653
55.8000,0.653
55.8400,0.643
55.8800,0.653
55.9200,0.636
55.9600,0.598
56.0000,0.648
56.0400,0.580
56.0800,0.573
56.1200,0.647
56.1600,0.646
56.2000,0.598
56.2400,0.594
56.2800,0.595
56.3200,0.533
56.3600,0.640
56.4000,0.558
56.4400,0.607
56.4800,0.582
56.5200,0.625
56.5600,0.616
56.6000,0.640
56.6400,0.560
56.6800,0.641
56.7200,0.587
56.7600,0.652
56.8000,0.600
56.8400,0.610
56.8800,0.555
56.9200,0.641
56.9600,0.577
57.0000,0.610
57.0400,0.616
57.0800,0.538
57.1200,0.576
57.1600,0.537
57.2000,0.610
57.2400,0.590
57.2800,0.576
57.3200,0.569
57.3600,0.646
57.4000,0.633
57.4400,0.587
57.4800,0.625
57.5200,0.583
57.5600,0.607
57.6000,0.549
57.6400,0.575
57.6800,0.602
57.7200,0.583
57.7600,0.555
57.8000,0.605
57.8400,0.605
57.8800,0.615
57.9200,0.596
57.9600,0.633
58.0000,0.511
58.0400,0.610
58.0800,0.619
58.1200,0.591
58.1600,0.540
58.2000,0.571
58.2400,0.578
58.2800,0.591
58.3200,0.585
58.3600,0.569
58.4000,0.510
58.4400,0.557
58.4800,0.569
58.5200,0.604
58.5600,0.557
58.6000,0.525
58.6400,0.579
58.6800,0.542
58.7200,0.575
58.7600,0.552
58.8000,0.524
58.8400,0.543
58.8800,0.519
58.9200,0.545
58.9600,0.552
59.0000,0.551
59.0400,0.513
59.0800,0.552
59.1200,0.536
59.1600,0.581
59.2000,0.550
59.2400,0.584
59.2800,0.532
59.3200,0.574
59.3600,0.502
59.4000,0.574
59.4400,0.582
59.4800,0.558
59.5200,0.551
59.5600,0.541
59.6000,0.542
59.6400,0.510
59.6800,0.591
59.7200,0.460
59.7600,0.564
59.8000,0.537
59.8400,0.518
59.8800,0.551
59.9200,0.529
59.9600,0.514
60.0000,0.534
60.0400,0.511
60.0800,0.558
60.1200,0.529
60.1600,0.527
60.2000,0.493
60.2400,0.510
60.2800,0.505
60.3200,0.540
60.3600,0.561
60.4000,0.518
60.4400,0.500
60.4800,0.491
60.5200,0.492
60.5600,0.539
60.6000,0.536
60.6400,0.492
60.6800,0.536
60.7200,0.505
60.7600,0.476
60.8000,0.466
60.8400,0.485
60.8800,0.510
60.9200,0.558
60.9600,0.551
61.0000,0.593
61.0400,0.474
61.0800,0.510
61.1200,0.530
61.1600,0.512
61.2000,0.494
61.2400,0.489
61.2800,0.449
61.3200,0.466
61.3600,0.452
61.4000,0.531
61.4400,0.427
61.4800,0.503
61.5200,0.462
61.5600,0.460
61.6000,0.505
61.6400,0.510
61.6800,0.471
61.7200,0.486
61.7600,0.488
61.8000,0.505
61.8400,0.482
61.8800,0.491
61.9200,0.490
61.9600,0.493
62.0000,0.458
62.0400,0.476
62.0800,0.518
62.1200,0.495
62.1600,0.464
62.2000,0.475
62.2400,0.475
62.2800,0.465
62.3200,0.491
62.3600,0.502
62.4000,0.498
62.4400,0.467
62.4800,0.483
62.5200,0.438
62.5600,0.436
62.6000,0.492
62.6400,0.506
62.6800,0.478
62.7200,0.455
62.7600,0.500
62.8000,0.460
62.8400,0.457
62.8800,0.497
62.9200,0.462
62.9600,0.442
63.0000,0.474
63.0400,0.476
63.0800,0.444
63.1200,0.508
63.1600,0.453
63.2000,0.470
63.2400,0.504
63.2800,0.487
63.3200,0.473
63.3600,0.411
63.4000,0.472
63.4400,0.489
63.4800,0.443
63.5200,0.502
63.5600,0.469
63.6000,0.490
63.6400,0.446
63.6800,0.501
63.7200,0.499
63.7600,0.467
63.8000,0.465
63.8400,0.483
63.8800,0.481
63.9200,0.487
63.9600,0.469
64.0000,0.430
64.0400,0.508
64.0800,0.454
64.1200,0.449
64.1600,0.466
64.2000,0.479
64.2400,0.511
64.2800,0.464
64.3200,0.501
64.3600,0.523
64.4000,0.484
64.4400,0.538
64.4800,0.500
64.5200,0.516
64.5600,0.613
64.6000,0.641
64.6400,0.652
64.6800,0.668
64.7200,0.706
64.7600,0.717
64.8000,0.760
64.8400,0.774
64.8800,0.734
64.9200,0.801
64.9600,0.904
65.0000,0.856
65.0400,0.942
65.0800,0.939
65.1200,0.894
65.1600,0.968
65.2000,0.988
65.2400,0.993
65.2800,1.015
65.3200,1.019
65.3600,1.090
65.4000,0.977
65.4400,0.937
65.4800,1.029
65.5200,0.928
65.5600,0.986
65.6000,0.952
65.6400,0.925
65.6800,0.941
65.7200,0.947
65.7600,0.843
65.8000,0.910
65.8400,0.821
65.8800,0.777
65.9200,0.774
65.9600,0.710
66.0000,0.829
66.0400,0.816
66.0800,0.717
66.1200,0.721
66.1600,0.678
66.2000,0.653
66.2400,0.671
66.2800,0.675
66.3200,0.587
66.3600,0.640
66.4000,0.604
66.4400,0.638
66.4800,0.605
66.5200,0.627
66.5600,0.563
66.6000,0.535
66.6400,0.548
66.6800,0.577
66.7200,0.579
66.7600,0.543
66.8000,0.544
66.8400,0.533
66.8800,0.519
66.9200,0.558
66.9600,0.494
67.0000,0.491
67.0400,0.470
67.0800,0.496
67.1200,0.488
67.1600,0.462
67.2000,0.452
67.2400,0.443
67.2800,0.440
67.3200,0.473
67.3600,0.466
67.4000,0.452
67.4400,0.428
67.4800,0.464
67.5200,0.460
67.5600,0.486
67.6000,0.471
67.6400,0.487
67.6800,0.390
67.7200,0.429
67.7600,0.469
67.8000,0.473
67.8400,0.437
67.8800,0.484
67.9200,0.484
67.9600,0.470
68.0000,0.463
68.0400,0.476
68.0800,0.491
68.1200,0.464
68.1600,0.402
68.2000,0.418
68.2400,0.447
68.2800,0.447
68.3200,0.405
68.3600,0.398
68.4000,0.406
68.4400,0.412
68.4800,0.398
68.5200,0.432
68.5600,0.430
68.6000,0.387
68.6400,0.421
68.6800,0.381
68.7200,0.398
68.7600,0.361
68.8000,0.381
68.8400,0.392
68.8800,0.357
68.9200,0.351
68.9600,0.421
69.0000,0.400
69.0400,0.396
69.0800,0.393
69.1200,0.375
69.1600,0.376
69.2000,0.354
69.2400,0.356
69.2800,0.355
69.3200,0.428
69.3600,0.400
69.4000,0.409
69.4400,0.419
69.4800,0.388
69.5200,0.366
69.5600,0.370
69.6000,0.375
69.6400,0.409
69.6800,0.361
69.7200,0.326
69.7600,0.331
69.8000,0.374
69.8400,0.379
69.8800,0.356
69.9200,0.343
69.9600,0.346
70.0000,0.385
70.0400,0.358
70.0800,0.322
70.1200,0.320
70.1600,0.342
70.2000,0.350
70.2400,0.336
70.2800,0.357
70.3200,0.323
70.3600,0.333
70.4000,0.345
70.4400,0.365
70.4800,0.357
70.5200,0.362
70.5600,0.324
70.6000,0.306
70.6400,0.345
70.6800,0.319
70.7200,0.335
70.7600,0.351
70.8000,0.364
70.8400,0.370
70.8800,0.345
70.9200,0.300
70.9600,0.305
71.0000,0.320
71.0400,0.343
71.0800,0.345
71.1200,0.378
71.1600,0.326
71.2000,0.319
71.2400,0.318
71.2800,0.339
71.3200,0.330
71.3600,0.285
71.4000,0.343
71.4400,0.353
71.4800,0.344
71.5200,0.337
71.5600,0.356
71.6000,0.313
71.6400,0.322
71.6800,0.395
71.7200,0.343
71.7600,0.300
71.8000,0.343
71.8400,0.326
71.8800,0.305
71.9200,0.325
71.9600,0.370
72.0000,0.341
72.0400,0.367
72.0800,0.301
72.1200,0.304
72.1600,0.365
72.2000,0.367
72.2400,0.359
72.2800,0.346
72.3200,0.379
72.3600,0.304
72.4000,0.274
72.4400,0.318
72.4800,0.357
72.5200,0.369
72.5600,0.322
72.6000,0.325
72.6400,0.315
72.6800,0.348
72.7200,0.338
72.7600,0.267
72.8000,0.288
72.8400,0.294
72.8800,0.332
72.9200,0.366
72.9600,0.314
73.0000,0.289
73.0400,0.338
73.0800,0.326
73.1200,0.329
73.1600,0.292
73.2000,0.298
73.2400,0.347
73.2800,0.276
73.3200,0.321
73.3600,0.358
73.4000,0.262
73.4400,0.345
73.4800,0.339
73.5200,0.290
73.5600,0.314
73.6000,0.309
73.6400,0.319
73.6800,0.316
73.7200,0.321
73.7600,0.351
73.8000,0.287
73.8400,0.323
73.8800,0.328
73.9200,0.331
73.9600,0.336
74.0000,0.318
74.0400,0.290
74.0800,0.341
74.1200,0.300
74.1600,0.296
74.2000,0.225
74.2400,0.314
74.2800,0.309
74.3200,0.286
74.3600,0.313
74.4000,0.353
74.4400,0.287
74.4800,0.361
74.5200,0.322
74.5600,0.259
74.6000,0.322
74.6400,0.294
74.6800,0.292
74.7200,0.297
74.7600,0.332
74.8000,0.357
74.8400,0.291
74.8800,0.293
74.9200,0.271
74.9600,0.290
75.0000,0.355
75.0400,0.286
75.0800,0.339
75.1200,0.304
75.1600,0.304
75.2000,0.334
75.2400,0.335
75.2800,0.277
75.3200,0.293
75.3600,0.341
75.4000,0.287
75.4400,0.337
75.4800,0.305
75.5200,0.341
75.5600,0.323
75.6000,0.336
75.6400,0.276
75.6800,0.301
75.7200,0.308
75.7600,0.313
75.8000,0.292
75.8400,0.271
75.8800,0.342
75.9200,0.306
75.9600,0.319
76.0000,0.313
76.0400,0.288
76.0800,0.287
76.1200,0.328
76.1600,0.319
76.2000,0.337
76.2400,0.311
76.2800,0.290
76.3200,0.320
76.3600,0.289
76.4000,0.323
76.4400,0.317
76.4800,0.316
76.5200,0.307
76.5600,0.306
76.6000,0.287
76.6400,0.310
76.6800,0.306
76.7200,0.286
76.7600,0.308
76.8000,0.331
76.8400,0.374
76.8800,0.339
76.9200,0.340
76.9600,0.298
77.0000,0.304
77.0400,0.317
77.0800,0.338
77.1200,0.328
77.1600,0.335
77.2000,0.336
77.2400,0.325
77.2800,0.343
77.3200,0.359
77.3600,0.334
77.4000,0.361
77.4400,0.382
77.4800,0.412
77.5200,0.390
77.5600,0.450
77.6000,0.422
77.6400,0.413
77.6800,0.495
77.7200,0.509
77.7600,0.493
77.8000,0.450
77.8400,0.537
77.8800,0.555
77.9200,0.562
77.9600,0.553
78.0000,0.620
78.0400,0.662
78.0800,0.568
78.1200,0.674
78.1600,0.709
78.2000,0.712
78.2400,0.680
78.2800,0.776
78.3200,0.711
78.3600,0.777
78.4000,0.721
78.4400,0.771
78.4800,0.726
78.5200,0.682
78.5600,0.718
78.6000,0.791
78.6400,0.757
78.6800,0.724
78.7200,0.766
78.7600,0.674
78.8000,0.736
78.8400,0.724
78.8800,0.771
78.9200,0.717
78.9600,0.698
79.0000,0.673
79.0400,0.702
79.0800,0.647
79.1200,0.670
79.1600,0.711
79.2000,0.650
79.2400,0.674
79.2800,0.650
79.3200,0.594
79.3600,0.542
79.4000,0.595
79.4400,0.544
79.4800,0.537
79.5200,0.537
79.5600,0.567
79.6000,0.542
79.6400,0.492
79.6800,0.484
79.7200,0.498
79.7600,0.452
79.8000,0.511
79.8400,0.440
79.8800,0.453
79.9200,0.425
79.9600,0.475
80.0000,0.496
