theta,intensity
5.0000,4.230
5.0400,4.391
5.0800,4.351
5.1200,4.340
5.1600,4.198
5.2000,4.229
5.2400,4.117
5.2800,4.120
5.3200,4.072
5.3600,4.099
5.4000,4.180
5.4400,4.144
5.4800,4.239
5.5200,4.137
5.5600,4.275
5.6000,4.177
5.6400,4.074
5.6800,4.166
5.7200,4.197
5.7600,4.103
5.8000,4.207
5.8400,4.132
5.8800,4.154
5.9200,4.074
5.9600,4.044
6.0000,4.068
6.0400,4.063
6.0800,4.083
6.1200,4.128
6.1600,4.074
6.2000,4.086
6.2400,4.186
6.2800,4.141
6.3200,3.989
6.3600,4.023
6.4000,4.037
6.4400,4.077
6.4800,4.100
6.5200,4.011
6.5600,3.999
6.6000,4.038
6.6400,3.851
6.6800,4.058
6.7200,3.941
6.7600,4.043
6.8000,3.977
6.8400,3.935
6.8800,3.984
6.9200,3.872
6.9600,3.920
7.0000,3.913
7.0400,3.976
7.0800,3.853
7.1200,3.863
7.1600,3.862
7.2000,3.736
7.2400,3.895
7.2800,3.840
7.3200,3.790
7.3600,4.015
7.4000,3.889
7.4400,3.871
7.4800,3.758
7.5200,3.825
7.5600,3.887
7.6000,3.878
7.6400,3.932
7.6800,3.781
7.7200,3.766
7.7600,3.749
7.8000,3.920
7.8400,3.958
7.8800,3.861
7.9200,3.779
7.9600,3.837
8.0000,3.713
8.0400,3.773
8.0800,3.806
8.1200,3.895
8.1600,3.803
8.2000,3.722
8.2400,3.780
8.2800,3.801
8.3200,3.698
8.3600,3.795
8.4000,3.846
8.4400,3.753
8.4800,3.766
8.5200,3.872
8.5600,3.768
8.6000,3.725
8.6400,3.694
8.6800,3.607
8.7200,3.865
8.7600,3.837
8.8000,3.858
8.8400,3.786
8.8800,3.744
8.9200,3.832
8.9600,3.842
9.0000,3.742
9.0400,3.818
9.0800,3.746
9.1200,3.711
9.1600,3.683
9.2000,3.692
9.2400,3.701
9.2800,3.645
9.3200,3.634
9.3600,3.711
9.4000,3.694
9.4400,3.738
9.4800,3.751
9.5200,3.618
9.5600,3.685
9.6000,3.621
9.6400,3.747
9.6800,3.738
9.7200,3.646
9.7600,3.635
9.8000,3.547
9.8400,3.636
9.8800,3.666
9.9200,3.723
9.9600,3.570
10.0000,3.600
10.0400,3.626
10.0800,3.560
10.1200,3.539
10.1600,3.594
10.2000,3.569
10.2400,3.662
10.2800,3.544
10.3200,3.641
10.3600,3.454
10.4000,3.517
10.4400,3.531
10.4800,3.527
10.5200,3.578
10.5600,3.589
10.6000,3.445
10.6400,3.704
10.6800,3.494
10.7200,3.559
10.7600,3.550
10.8000,3.547
10.8400,3.435
10.8800,3.581
10.9200,3.554
10.9600,3.545
11.0000,3.507
11.0400,3.497
11.0800,3.661
11.1200,3.373
11.1600,3.413
11.2000,3.606
11.2400,3.485
11.2800,3.314
11.3200,3.454
11.3600,3.443
11.4000,3.434
11.4400,3.473
11.4800,3.423
11.5200,3.491
11.5600,3.382
11.6000,3.513
11.6400,3.539
11.6800,3.411
11.7200,3.388
11.7600,3.579
11.8000,3.407
11.8400,3.443
11.8800,3.389
11.9200,3.421
11.9600,3.442
12.0000,3.489
12.0400,3.394
12.0800,3.392
12.1200,3.252
12.1600,3.400
12.2000,3.437
12.2400,3.406
12.2800,3.377
12.3200,3.478
12.3600,3.399
12.4000,3.347
12.4400,3.501
12.4800,3.311
12.5200,3.258
12.5600,3.294
12.6000,3.372
12.6400,3.292
12.6800,3.360
12.7200,3.366
12.7600,3.499
12.8000,3.338
12.8400,3.314
12.8800,3.227
12.9200,3.360
12.9600,3.281
13.0000,3.217
13.0400,3.308
13.0800,3.364
13.1200,3.355
13.1600,3.314
13.2000,3.272
13.2400,3.361
13.2800,3.279
13.3200,3.366
13.3600,3.294
13.4000,3.297
13.4400,3.272
13.4800,3.307
13.5200,3.281
13.5600,3.302
13.6000,3.366
13.6400,3.264
13.6800,3.211
13.7200,3.373
13.7600,3.361
13.8000,3.162
13.8400,3.235
13.8800,3.253
13.9200,3.280
13.9600,3.304
14.0000,3.215
14.0400,3.195
14.0800,3.253
14.1200,3.071
14.1600,3.292
14.2000,3.184
14.2400,3.183
14.2800,3.292
14.3200,3.220
14.3600,3.206
14.4000,3.251
14.4400,3.169
14.4800,3.208
14.5200,3.195
14.5600,3.176
14.6000,3.187
14.6400,3.188
14.6800,3.212
14.7200,3.177
14.7600,3.109
14.8000,3.232
14.8400,3.167
14.8800,3.114
14.9200,3.072
14.9600,3.164
15.0000,3.236
15.0400,3.187
15.0800,3.096
15.1200,3.208
15.1600,3.148
15.2000,3.031
15.2400,3.177
15.2800,3.026
15.3200,3.173
15.3600,3.202
15.4000,3.152
15.4400,3.042
15.4800,3.055
15.5200,3.120
15.5600,3.180
15.6000,3.095
15.6400,3.036
15.6800,3.041
15.7200,3.234
15.7600,3.067
15.8000,3.081
15.8400,3.037
15.8800,2.964
15.9200,3.129
15.9600,2.991
16.0000,3.035
16.0400,3.129
16.0800,3.113
16.1200,3.116
16.1600,3.027
16.2000,3.029
16.2400,3.041
16.2800,3.053
16.3200,3.097
16.3600,3.072
16.4000,2.975
16.4400,3.018
16.4800,3.064
16.5200,2.971
16.5600,2.954
16.6000,2.985
16.6400,3.070
16.6800,2.989
16.7200,3.071
16.7600,3.007
16.8000,3.003
16.8400,3.054
16.8800,2.980
16.9200,2.992
16.9600,2.915
17.0000,2.915
17.0400,2.873
17.0800,2.982
17.1200,2.996
17.1600,3.018
17.2000,2.930
17.2400,3.038
17.2800,2.987
17.3200,3.025
17.3600,2.947
17.4000,2.951
17.4400,3.023
17.4800,2.936
17.5200,3.028
17.5600,2.917
17.6000,3.005
17.6400,2.943
17.6800,2.939
17.7200,3.024
17.7600,2.913
17.8000,2.958
17.8400,2.980
17.8800,2.969
17.9200,2.798
17.9600,2.899
18.0000,2.855
18.0400,2.901
18.0800,2.813
18.1200,2.897
18.1600,2.976
18.2000,2.972
18.2400,2.924
18.2800,2.745
18.3200,2.869
18.3600,2.942
18.4000,2.954
18.4400,2.742
18.4800,2.826
18.5200,2.852
18.5600,2.839
18.6000,2.929
18.6400,2.838
18.6800,2.921
18.7200,2.806
18.7600,2.844
18.8000,2.796
18.8400,2.840
18.8800,2.809
18.9200,2.715
18.9600,2.732
19.0000,2.793
19.0400,2.797
19.0800,2.849
19.1200,2.764
19.1600,2.701
19.2000,2.755
19.2400,2.746
19.2800,2.919
19.3200,2.747
19.3600,2.766
19.4000,2.727
19.4400,2.666
19.4800,2.674
19.5200,2.708
19.5600,2.734
19.6000,2.656
19.6400,2.744
19.6800,2.818
19.7200,2.797
19.7600,2.746
19.8000,2.707
19.8400,2.775
19.8800,2.791
19.9200,2.818
19.9600,2.741
20.0000,2.649
20.0400,2.580
20.0800,2.752
20.1200,2.692
20.1600,2.707
20.2000,2.724
20.2400,2.705
20.2800,2.640
20.3200,2.610
20.3600,2.678
20.4000,2.692
20.4400,2.777
20.4800,2.664
20.5200,2.655
20.5600,2.667
20.6000,2.580
20.6400,2.633
20.6800,2.624
20.7200,2.613
20.7600,2.653
20.8000,2.665
20.8400,2.700
20.8800,2.640
20.9200,2.745
20.9600,2.619
21.0000,2.635
21.0400,2.641
21.0800,2.548
21.1200,2.608
21.1600,2.576
21.2000,2.640
21.2400,2.627
21.2800,2.662
21.3200,2.608
21.3600,2.628
21.4000,2.552
21.4400,2.604
21.4800,2.608
21.5200,2.562
21.5600,2.530
21.6000,2.507
21.6400,2.623
21.6800,2.550
21.7200,2.613
21.7600,2.587
21.8000,2.587
21.8400,2.512
21.8800,2.548
21.9200,2.586
21.9600,2.544
22.0000,2.567
22.0400,2.413
22.0800,2.505
22.1200,2.530
22.1600,2.589
22.2000,2.646
22.2400,2.521
22.2800,2.572
22.3200,2.643
22.3600,2.540
22.4000,2.539
22.4400,2.559
22.4800,2.480
22.5200,2.437
22.5600,2.457
22.6000,2.537
22.6400,2.529
22.6800,2.489
22.7200,2.532
22.7600,2.504
22.8000,2.532
22.8400,2.542
22.8800,2.557
22.9200,2.516
22.9600,2.480
23.0000,2.441
23.0400,2.469
23.0800,2.687
23.1200,2.659
23.1600,3.916
23.2000,4.898
23.2400,4.013
23.2800,3.208
23.3200,2.637
23.3600,2.509
23.4000,2.449
23.4400,2.327
23.4800,2.401
23.5200,2.472
23.5600,2.387
23.6000,2.439
23.6400,2.448
23.6800,2.421
23.7200,2.453
23.7600,2.442
23.8000,2.381
23.8400,2.395
23.8800,2.400
23.9200,2.399
23.9600,2.375
24.0000,2.475
24.0400,2.464
24.0800,2.244
24.1200,2.423
24.1600,2.425
24.2000,2.376
24.2400,2.408
24.2800,2.371
24.3200,2.302
24.3600,2.317
24.4000,2.376
24.4400,2.417
24.4800,2.414
24.5200,2.414
24.5600,2.377
24.6000,2.389
24.6400,2.334
24.6800,2.302
24.7200,2.449
24.7600,2.350
24.8000,2.347
24.8400,2.317
24.8800,2.348
24.9200,2.414
24.9600,2.402
25.0000,2.316
25.0400,2.394
25.0800,2.285
25.1200,2.397
25.1600,2.313
25.2000,2.358
25.2400,2.358
25.2800,2.324
25.3200,2.362
25.3600,2.266
25.4000,2.294
25.4400,2.397
25.4800,2.343
25.5200,2.335
25.5600,2.341
25.6000,2.266
25.6400,2.311
25.6800,2.386
25.7200,2.274
25.7600,2.291
25.8000,2.307
25.8400,2.260
25.8800,2.255
25.9200,2.325
25.9600,2.302
26.0000,2.320
26.0400,2.263
26.0800,2.228
26.1200,2.234
26.1600,2.306
26.2000,2.170
26.2400,2.307
26.2800,2.336
26.3200,2.284
26.3600,2.258
26.4000,2.368
26.4400,2.269
26.4800,2.256
26.5200,2.272
26.5600,2.253
26.6000,2.203
26.6400,2.175
26.6800,2.232
26.7200,2.255
26.7600,2.320
26.8000,2.402
26.8400,2.567
26.8800,2.844
26.9200,2.925
26.9600,2.639
27.0000,2.446
27.0400,2.385
27.0800,2.246
27.1200,2.303
27.1600,2.242
27.2000,2.307
27.2400,2.341
27.2800,2.203
27.3200,2.274
27.3600,2.187
27.4000,2.291
27.4400,2.289
27.4800,2.295
27.5200,2.212
27.5600,2.269
27.6000,2.218
27.6400,2.293
27.6800,2.226
27.7200,2.265
27.7600,2.291
27.8000,2.296
27.8400,2.198
27.8800,2.308
27.9200,2.354
27.9600,2.222
28.0000,2.404
28.0400,2.315
28.0800,2.373
28.1200,2.440
28.1600,2.367
28.2000,2.336
28.2400,2.382
28.2800,2.343
28.3200,2.475
28.3600,2.412
28.4000,2.471
28.4400,2.447
28.4800,2.507
28.5200,2.445
28.5600,2.482
28.6000,2.389
28.6400,2.391
28.6800,2.449
28.7200,2.482
28.7600,2.245
28.8000,2.437
28.8400,2.385
28.8800,2.306
28.9200,2.351
28.9600,2.293
29.0000,2.316
29.0400,2.233
29.0800,2.339
29.1200,2.279
29.1600,2.321
29.2000,2.260
29.2400,2.268
29.2800,2.212
29.3200,2.335
29.3600,2.160
29.4000,2.206
29.4400,2.157
29.4800,2.276
29.5200,2.185
29.5600,2.208
29.6000,2.129
29.6400,2.124
29.6800,2.064
29.7200,2.035
29.7600,2.110
29.8000,2.091
29.8400,2.063
29.8800,2.042
29.9200,2.078
29.9600,2.064
30.0000,1.994
30.0400,2.058
30.0800,2.017
30.1200,1.984
30.1600,1.963
30.2000,2.025
30.2400,1.984
30.2800,2.068
30.3200,2.116
30.3600,2.002
30.4000,1.912
30.4400,1.972
30.4800,1.887
30.5200,1.839
30.5600,1.907
30.6000,1.937
30.6400,1.843
30.6800,1.878
30.7200,1.870
30.7600,1.829
30.8000,1.952
30.8400,1.896
30.8800,1.905
30.9200,1.981
30.9600,1.878
31.0000,1.861
31.0400,1.854
31.0800,1.928
31.1200,1.873
31.1600,1.851
31.2000,1.790
31.2400,1.855
31.2800,1.848
31.3200,1.833
31.3600,1.831
31.4000,1.818
31.4400,1.881
31.4800,1.836
31.5200,1.798
31.5600,1.886
31.6000,1.868
31.6400,1.836
31.6800,1.823
31.7200,1.905
31.7600,1.837
31.8000,1.763
31.8400,1.799
31.8800,1.726
31.9200,1.839
31.9600,1.829
32.0000,1.857
32.0400,1.786
32.0800,1.718
32.1200,1.752
32.1600,1.874
32.2000,1.730
32.2400,1.789
32.2800,1.819
32.3200,1.758
32.3600,1.812
32.4000,1.862
32.4400,1.783
32.4800,1.848
32.5200,1.762
32.5600,1.722
32.6000,1.803
32.6400,1.752
32.6800,1.767
32.7200,1.784
32.7600,1.746
32.8000,1.838
32.8400,1.830
32.8800,2.030
32.9200,2.470
32.9600,5.720
33.0000,12.097
33.0400,11.614
33.0800,9.026
33.1200,6.686
33.1600,3.517
33.2000,2.078
33.2400,1.896
33.2800,1.683
33.3200,1.760
33.3600,1.785
33.4000,1.667
33.4400,1.696
33.4800,1.713
33.5200,1.704
33.5600,1.722
33.6000,1.707
33.6400,1.697
33.6800,1.649
33.7200,1.683
33.7600,1.640
33.8000,1.733
33.8400,1.695
33.8800,1.630
33.9200,1.700
33.9600,1.609
34.0000,1.612
34.0400,1.629
34.0800,1.690
34.1200,1.692
34.1600,1.630
34.2000,1.616
34.2400,1.599
34.2800,1.578
34.3200,1.611
34.3600,1.567
34.4000,1.566
34.4400,1.562
34.4800,1.521
34.5200,1.628
34.5600,1.593
34.6000,1.465
34.6400,1.526
34.6800,1.583
34.7200,1.630
34.7600,1.643
34.8000,1.605
34.8400,1.608
34.8800,1.645
34.9200,1.590
34.9600,1.573
35.0000,1.549
35.0400,1.561
35.0800,1.494
35.1200,1.613
35.1600,1.584
35.2000,1.566
35.2400,1.559
35.2800,1.620
35.3200,1.548
35.3600,1.506
35.4000,1.522
35.4400,1.458
35.4800,1.521
35.5200,1.587
35.5600,1.527
35.6000,1.462
35.6400,1.556
35.6800,1.576
35.7200,1.625
35.7600,1.626
35.8000,1.542
35.8400,1.583
35.8800,1.540
35.9200,1.532
35.9600,1.579
36.0000,1.536
36.0400,1.493
36.0800,1.433
36.1200,1.421
36.1600,1.501
36.2000,1.489
36.2400,1.438
36.2800,1.509
36.3200,1.484
36.3600,1.495
36.4000,1.420
36.4400,1.430
36.4800,1.417
36.5200,1.460
36.5600,1.452
36.6000,1.461
36.6400,1.455
36.6800,1.478
36.7200,1.520
36.7600,1.481
36.8000,1.425
36.8400,1.401
36.8800,1.404
36.9200,1.469
36.9600,1.442
37.0000,1.455
37.0400,1.459
37.0800,1.431
37.1200,1.486
37.1600,1.462
37.2000,1.431
37.2400,1.395
37.2800,1.502
37.3200,1.432
37.3600,1.427
37.4000,1.452
37.4400,1.458
37.4800,1.372
37.5200,1.391
37.5600,1.479
37.6000,1.445
37.6400,1.487
37.6800,1.481
37.7200,1.521
37.7600,1.510
37.8000,1.546
37.8400,1.519
37.8800,1.707
37.9200,1.870
37.9600,1.823
38.0000,1.825
38.0400,1.820
38.0800,1.898
38.1200,1.999
38.1600,2.212
38.2000,2.884
38.2400,3.749
38.2800,6.191
38.3200,10.378
38.3600,11.565
38.4000,10.411
38.4400,9.163
38.4800,7.089
38.5200,4.860
38.5600,3.812
38.6000,3.203
38.6400,2.769
38.6800,2.401
38.7200,2.196
38.7600,1.971
38.8000,1.720
38.8400,1.590
38.8800,1.616
38.9200,1.510
38.9600,1.512
39.0000,1.577
39.0400,1.540
39.0800,1.522
39.1200,1.419
39.1600,1.394
39.2000,1.451
39.2400,1.440
39.2800,1.440
39.3200,1.505
39.3600,1.547
39.4000,1.724
39.4400,1.972
39.4800,1.858
39.5200,1.651
39.5600,1.665
39.6000,1.450
39.6400,1.400
39.6800,1.355
39.7200,1.293
39.7600,1.368
39.8000,1.338
39.8400,1.322
39.8800,1.262
39.9200,1.326
39.9600,1.279
40.0000,1.264
40.0400,1.257
40.0800,1.305
40.1200,1.288
40.1600,1.342
40.2000,1.280
40.2400,1.286
40.2800,1.261
40.3200,1.318
40.3600,1.338
40.4000,1.345
40.4400,1.254
40.4800,1.259
40.5200,1.323
40.5600,1.357
40.6000,1.284
40.6400,1.451
40.6800,1.920
40.7200,1.899
40.7600,1.585
40.8000,1.736
40.8400,1.515
40.8800,1.290
40.9200,1.221
40.9600,1.231
41.0000,1.208
41.0400,1.220
41.0800,1.212
41.1200,1.272
41.1600,1.210
41.2000,1.300
41.2400,1.408
41.2800,1.537
41.3200,1.390
41.3600,1.454
41.4000,1.417
41.4400,1.286
41.4800,1.227
41.5200,1.140
41.5600,1.210
41.6000,1.175
41.6400,1.135
41.6800,1.137
41.7200,1.162
41.7600,1.231
41.8000,1.243
41.8400,1.179
41.8800,1.147
41.9200,1.185
41.9600,1.188
42.0000,1.164
42.0400,1.159
42.0800,1.208
42.1200,1.114
42.1600,1.167
42.2000,1.189
42.2400,1.244
42.2800,1.192
42.3200,1.191
42.3600,1.125
42.4000,1.148
42.4400,1.122
42.4800,1.197
42.5200,1.140
42.5600,1.126
42.6000,1.094
42.6400,1.124
42.6800,1.126
42.7200,1.147
42.7600,1.125
42.8000,1.122
42.8400,1.087
42.8800,1.179
42.9200,1.118
42.9600,1.132
43.0000,1.103
43.0400,1.075
43.0800,1.208
43.1200,1.077
43.1600,1.048
43.2000,1.101
43.2400,1.104
43.2800,1.039
43.3200,1.078
43.3600,1.059
43.4000,1.069
43.4400,1.066
43.4800,1.079
43.5200,1.089
43.5600,1.054
43.6000,1.045
43.6400,1.087
43.6800,1.053
43.7200,1.083
43.7600,1.022
43.8000,1.135
43.8400,1.078
43.8800,1.073
43.9200,1.062
43.9600,1.067
44.0000,1.060
44.0400,1.107
44.0800,1.114
44.1200,1.165
44.1600,1.198
44.2000,1.119
44.2400,1.141
44.2800,1.115
44.3200,1.116
44.3600,1.077
44.4000,1.038
44.4400,1.091
44.4800,1.087
44.5200,1.076
44.5600,1.094
44.6000,1.108
44.6400,1.058
44.6800,0.991
44.7200,1.075
44.7600,1.038
44.8000,0.998
44.8400,0.991
44.8800,1.008
44.9200,1.027
44.9600,1.038
45.0000,0.935
45.0400,1.004
45.0800,1.009
45.1200,0.987
45.1600,0.931
45.2000,1.048
45.2400,0.918
45.2800,0.959
45.3200,1.038
45.3600,0.994
45.4000,0.946
45.4400,0.977
45.4800,1.067
45.5200,1.006
45.5600,1.019
45.6000,1.013
45.6400,0.965
45.6800,0.961
45.7200,0.978
45.7600,0.955
45.8000,0.988
45.8400,0.967
45.8800,0.946
45.9200,0.925
45.9600,0.906
46.0000,0.914
46.0400,0.966
46.0800,0.963
46.1200,0.934
46.1600,0.949
46.2000,0.995
46.2400,0.915
46.2800,0.985
46.3200,0.942
46.3600,0.975
46.4000,0.964
46.4400,0.959
46.4800,0.944
46.5200,0.940
46.5600,0.916
46.6000,0.955
46.6400,0.985
46.6800,1.000
46.7200,0.955
46.7600,0.982
46.8000,0.904
46.8400,0.897
46.8800,0.939
46.9200,0.904
46.9600,0.946
47.0000,0.935
47.0400,0.892
47.0800,0.949
47.1200,0.945
47.1600,0.923
47.2000,0.929
47.2400,0.909
47.2800,1.120
47.3200,1.425
47.3600,1.340
47.4000,1.241
47.4400,1.335
47.4800,1.240
47.5200,1.097
47.5600,1.049
47.6000,0.943
47.6400,0.901
47.6800,0.874
47.7200,0.898
47.7600,0.866
47.8000,0.855
47.8400,0.866
47.8800,0.875
47.9200,0.850
47.9600,0.904
48.0000,0.895
48.0400,0.894
48.0800,0.934
48.1200,0.890
48.1600,0.885
48.2000,0.868
48.2400,0.857
48.2800,0.827
48.3200,0.858
48.3600,0.856
48.4000,0.917
48.4400,0.817
48.4800,0.870
48.5200,0.872
48.5600,0.868
48.6000,0.869
48.6400,0.853
48.6800,0.860
48.7200,0.835
48.7600,0.886
48.8000,0.819
48.8400,0.816
48.8800,0.830
48.9200,0.866
48.9600,0.894
49.0000,0.817
49.0400,0.907
49.0800,0.907
49.1200,0.848
49.1600,0.868
49.2000,0.836
49.2400,0.833
49.2800,0.860
49.3200,0.811
49.3600,0.796
49.4000,0.884
49.4400,0.821
49.4800,0.840
49.5200,0.850
49.5600,0.860
49.6000,0.812
49.6400,0.799
49.6800,0.849
49.7200,0.796
49.7600,0.822
49.8000,0.853
49.8400,0.798
49.8800,0.820
49.9200,0.825
49.9600,0.773
50.0000,0.790
50.0400,0.820
50.0800,0.816
50.1200,0.804
50.1600,0.787
50.2000,0.805
50.2400,0.839
50.2800,0.829
50.3200,0.780
50.3600,0.807
50.4000,0.857
50.4400,0.798
50.4800,0.840
50.5200,0.838
50.5600,0.802
50.6000,0.821
50.6400,0.852
50.6800,0.784
50.7200,0.810
50.7600,0.796
50.8000,0.797
50.8400,0.824
50.8800,0.778
50.9200,0.830
50.9600,0.784
51.0000,0.738
51.0400,0.818
51.0800,0.781
51.1200,0.780
51.1600,0.852
51.2000,0.839
51.2400,0.800
51.2800,0.789
51.3200,0.773
51.3600,0.805
51.4000,0.827
51.4400,0.798
51.4800,0.758
51.5200,0.809
51.5600,0.798
51.6000,0.745
51.6400,0.766
51.6800,0.719
51.7200,0.763
51.7600,0.739
51.8000,0.816
51.8400,0.787
51.8800,0.754
51.9200,0.793
51.9600,0.759
52.0000,0.746
52.0400,0.782
52.0800,0.713
52.1200,0.747
52.1600,0.800
52.2000,0.780
52.2400,0.720
52.2800,0.784
52.3200,0.807
52.3600,0.756
52.4000,0.748
52.4400,0.806
52.4800,0.699
52.5200,0.796
52.5600,0.791
52.6000,0.785
52.6400,0.774
52.6800,0.699
52.7200,0.753
52.7600,0.741
52.8000,0.741
52.8400,0.711
52.8800,0.739
52.9200,0.739
52.9600,0.730
53.0000,0.766
53.0400,0.736
53.0800,0.729
53.1200,0.747
53.1600,0.773
53.2000,0.774
53.2400,0.807
53.2800,1.115
53.3200,1.867
53.3600,1.835
53.4000,1.073
53.4400,1.160
53.4800,1.318
53.5200,1.145
53.5600,0.821
53.6000,0.800
53.6400,0.761
53.6800,0.763
53.7200,0.697
53.7600,0.749
53.8000,0.651
53.8400,0.713
53.8800,0.718
53.9200,0.793
53.9600,0.710
54.0000,0.691
54.0400,0.685
54.0800,0.758
54.1200,0.757
54.1600,0.703
54.2000,0.701
54.2400,0.705
54.2800,0.686
54.3200,0.677
54.3600,0.760
54.4000,0.736
54.4400,0.726
54.4800,0.705
54.5200,0.712
54.5600,0.717
54.6000,0.690
54.6400,0.717
54.6800,0.668
54.7200,0.664
54.7600,0.724
54.8000,0.751
54.8400,0.828
54.8800,0.707
54.9200,0.754
54.9600,0.737
55.0000,0.804
55.0400,0.826
55.0800,0.885
55.1200,0.875
55.1600,0.992
55.2000,1.085
55.2400,1.245
55.2800,1.460
55.3200,1.499
55.3600,1.527
55.4000,1.368
55.4400,1.343
55.4800,1.318
55.5200,1.276
55.5600,1.131
55.6000,0.973
55.6400,0.900
55.6800,0.866
55.7200,0.864
55.7600,0.735
55.8000,0.745
55.8400,0.772
55.8800,0.676
55.9200,0.661
55.9600,0.708
56.0000,0.673
56.0400,0.665
56.0800,0.696
56.1200,0.683
56.1600,0.725
56.2000,0.640
56.2400,0.679
56.2800,0.661
56.3200,0.653
56.3600,0.685
56.4000,0.695
56.4400,0.666
56.4800,0.712
56.5200,0.667
56.5600,0.687
56.6000,0.658
56.6400,0.652
56.6800,0.653
56.7200,0.653
56.7600,0.649
56.8000,0.640
56.8400,0.621
56.8800,0.649
56.9200,0.712
56.9600,0.680
57.0000,0.662
57.0400,0.666
57.0800,0.605
57.1200,0.636
57.1600,0.630
57.2000,0.682
57.2400,0.671
57.2800,0.632
57.3200,0.646
57.3600,0.580
57.4000,0.633
57.4400,0.628
57.4800,0.605
57.5200,0.625
57.5600,0.615
57.6000,0.630
57.6400,0.604
57.6800,0.641
57.7200,0.652
57.7600,0.611
57.8000,0.616
57.8400,0.592
57.8800,0.598
57.9200,0.528
57.9600,0.619
58.0000,0.619
58.0400,0.666
58.0800,0.621
58.1200,0.633
58.1600,0.606
58.2000,0.597
58.2400,0.627
58.2800,0.624
58.3200,0.611
58.3600,0.594
58.4000,0.611
58.4400,0.635
58.4800,0.562
58.5200,0.633
58.5600,0.616
58.6000,0.648
58.6400,0.650
58.6800,0.577
58.7200,0.633
58.7600,0.658
58.8000,0.764
58.8400,1.239
58.8800,1.840
58.9200,1.618
58.9600,1.001
59.0000,1.018
59.0400,1.271
59.0800,1.128
59.1200,0.862
59.1600,0.642
59.2000,0.640
59.2400,0.599
59.2800,0.619
59.3200,0.627
59.3600,0.611
59.4000,0.604
59.4400,0.616
59.4800,0.598
59.5200,0.595
59.5600,0.581
59.6000,0.593
59.6400,0.535
59.6800,0.567
59.7200,0.553
59.7600,0.589
59.8000,0.564
59.8400,0.603
59.8800,0.577
59.9200,0.535
59.9600,0.603
60.0000,0.578
60.0400,0.539
60.0800,0.612
60.1200,0.586
60.1600,0.534
60.2000,0.574
60.2400,0.586
60.2800,0.584
60.3200,0.570
60.3600,0.564
60.4000,0.531
60.4400,0.608
60.4800,0.572
60.5200,0.578
60.5600,0.600
60.6000,0.544
60.6400,0.581
60.6800,0.589
60.7200,0.557
60.7600,0.553
60.8000,0.587
60.8400,0.549
60.8800,0.627
60.9200,0.544
60.9600,0.548
61.0000,0.527
61.0400,0.537
61.0800,0.548
61.1200,0.527
61.1600,0.558
61.2000,0.550
61.2400,0.533
61.2800,0.508
61.3200,0.530
61.3600,0.548
61.4000,0.508
61.4400,0.556
61.4800,0.544
61.5200,0.533
61.5600,0.540
61.6000,0.555
61.6400,0.544
61.6800,0.560
61.7200,0.524
61.7600,0.512
61.8000,0.520
61.8400,0.545
61.8800,0.524
61.9200,0.515
61.9600,0.510
62.0000,0.519
62.0400,0.523
62.0800,0.548
62.1200,0.541
62.1600,0.569
62.2000,0.530
62.2400,0.560
62.2800,0.539
62.3200,0.557
62.3600,0.560
62.4000,0.562
62.4400,0.571
62.4800,0.605
62.5200,0.561
62.5600,0.553
62.6000,0.617
62.6400,0.579
62.6800,0.597
62.7200,0.557
62.7600,0.538
62.8000,0.539
62.8400,0.545
62.8800,0.504
62.9200,0.551
62.9600,0.538
63.0000,0.503
63.0400,0.540
63.0800,0.512
63.1200,0.488
63.1600,0.484
63.2000,0.526
63.2400,0.546
63.2800,0.479
63.3200,0.503
63.3600,0.491
63.4000,0.516
63.4400,0.504
63.4800,0.497
63.5200,0.500
63.5600,0.474
63.6000,0.465
63.6400,0.487
63.6800,0.514
63.7200,0.492
63.7600,0.479
63.8000,0.452
63.8400,0.463
63.8800,0.456
63.9200,0.497
63.9600,0.491
64.0000,0.464
64.0400,0.501
64.0800,0.499
64.1200,0.465
64.1600,0.491
64.2000,0.490
64.2400,0.472
64.2800,0.509
64.3200,0.473
64.3600,0.421
64.4000,0.471
64.4400,0.460
64.4800,0.469
64.5200,0.479
64.5600,0.503
64.6000,0.451
64.6400,0.463
64.6800,0.471
64.7200,0.478
64.7600,0.500
64.8000,0.440
64.8400,0.449
64.8800,0.494
64.9200,0.476
64.9600,0.480
65.0000,0.472
65.0400,0.492
65.0800,0.486
65.1200,0.482
65.1600,0.471
65.2000,0.498
65.2400,0.476
65.2800,0.513
65.3200,0.497
65.3600,0.461
65.4000,0.470
65.4400,0.434
65.4800,0.459
65.5200,0.431
65.5600,0.475
65.6000,0.463
65.6400,0.489
65.6800,0.455
65.7200,0.495
65.7600,0.495
65.8000,0.605
65.8400,0.489
65.8800,0.511
65.9200,0.429
65.9600,0.514
66.0000,0.495
66.0400,0.476
66.0800,0.452
66.1200,0.464
66.1600,0.463
66.2000,0.459
66.2400,0.463
66.2800,0.495
66.3200,0.448
66.3600,0.447
66.4000,0.470
66.4400,0.408
66.4800,0.447
66.5200,0.449
66.5600,0.486
66.6000,0.572
66.6400,0.661
66.6800,0.574
66.7200,0.534
66.7600,0.524
66.8000,0.523
66.8400,0.557
66.8800,0.483
66.9200,0.449
66.9600,0.479
67.0000,0.434
67.0400,0.462
67.0800,0.455
67.1200,0.490
67.1600,0.480
67.2000,0.435
67.2400,0.451
67.2800,0.431
67.3200,0.396
67.3600,0.427
67.4000,0.447
67.4400,0.462
67.4800,0.442
67.5200,0.439
67.5600,0.423
67.6000,0.443
67.6400,0.397
67.6800,0.444
67.7200,0.438
67.7600,0.431
67.8000,0.476
67.8400,0.436
67.8800,0.454
67.9200,0.451
67.9600,0.421
68.0000,0.436
68.0400,0.428
68.0800,0.388
68.1200,0.457
68.1600,0.460
68.2000,0.425
68.2400,0.429
68.2800,0.449
68.3200,0.419
68.3600,0.444
68.4000,0.439
68.4400,0.448
68.4800,0.465
68.5200,0.525
68.5600,0.522
68.6000,0.514
68.6400,0.463
68.6800,0.492
68.7200,0.488
68.7600,0.503
68.8000,0.508
68.8400,0.528
68.8800,0.532
68.9200,0.555
68.9600,0.635
69.0000,0.696
69.0400,0.782
69.0800,1.059
69.1200,1.541
69.1600,1.691
69.2000,1.668
69.2400,1.764
69.2800,1.824
69.3200,1.813
69.3600,1.586
69.4000,1.336
69.4400,1.239
69.4800,1.209
69.5200,1.021
69.5600,0.806
69.6000,0.662
69.6400,0.577
69.6800,0.576
69.7200,0.537
69.7600,0.498
69.8000,0.517
69.8400,0.454
69.8800,0.446
69.9200,0.429
69.9600,0.458
70.0000,0.448
70.0400,0.423
70.0800,0.440
70.1200,0.407
70.1600,0.450
70.2000,0.424
70.2400,0.424
70.2800,0.418
70.3200,0.400
70.3600,0.411
70.4000,0.431
70.4400,0.391
70.4800,0.383
70.5200,0.460
70.5600,0.383
70.6000,0.404
70.6400,0.389
70.6800,0.424
70.7200,0.403
70.7600,0.376
70.8000,0.409
70.8400,0.372
70.8800,0.398
70.9200,0.401
70.9600,0.399
71.0000,0.371
71.0400,0.362
71.0800,0.415
71.1200,0.368
71.1600,0.386
71.2000,0.368
71.2400,0.351
71.2800,0.359
71.3200,0.370
71.3600,0.367
71.4000,0.356
71.4400,0.387
71.4800,0.326
71.5200,0.372
71.5600,0.357
71.6000,0.386
71.6400,0.391
71.6800,0.360
71.7200,0.361
71.7600,0.367
71.8000,0.377
71.8400,0.363
71.8800,0.330
71.9200,0.383
71.9600,0.380
72.0000,0.371
72.0400,0.372
72.0800,0.368
72.1200,0.382
72.1600,0.428
72.2000,0.394
72.2400,0.363
72.2800,0.388
72.3200,0.389
72.3600,0.390
72.4000,0.359
72.4400,0.368
72.4800,0.367
72.5200,0.354
72.5600,0.352
72.6000,0.362
72.6400,0.340
72.6800,0.335
72.7200,0.369
72.7600,0.342
72.8000,0.381
72.8400,0.341
72.8800,0.369
72.9200,0.371
72.9600,0.356
73.0000,0.349
73.0400,0.365
73.0800,0.377
73.1200,0.356
73.1600,0.385
73.2000,0.353
73.2400,0.407
73.2800,0.318
73.3200,0.358
73.3600,0.363
73.4000,0.360
73.4400,0.386
73.4800,0.352
73.5200,0.348
73.5600,0.366
73.6000,0.348
73.6400,0.375
73.6800,0.365
73.7200,0.361
73.7600,0.330
73.8000,0.361
73.8400,0.353
73.8800,0.359
73.9200,0.375
73.9600,0.498
74.0000,0.527
74.0400,0.464
74.0800,0.391
74.1200,0.369
74.1600,0.393
74.2000,0.439
74.2400,0.388
74.2800,0.373
74.3200,0.350
74.3600,0.385
74.4000,0.313
74.4400,0.338
74.4800,0.346
74.5200,0.331
74.5600,0.318
74.6000,0.370
74.6400,0.338
74.6800,0.348
74.7200,0.315
74.7600,0.320
74.8000,0.345
74.8400,0.325
74.8800,0.312
74.9200,0.329
74.9600,0.339
75.0000,0.311
75.0400,0.344
75.0800,0.374
75.1200,0.312
75.1600,0.370
75.2000,0.325
75.2400,0.363
75.2800,0.329
75.3200,0.325
75.3600,0.339
75.4000,0.323
75.4400,0.347
75.4800,0.315
75.5200,0.324
75.5600,0.335
75.6000,0.356
75.6400,0.310
75.6800,0.353
75.7200,0.348
75.7600,0.364
75.8000,0.333
75.8400,0.390
75.8800,0.385
75.9200,0.384
75.9600,0.386
76.0000,0.365
76.0400,0.342
76.0800,0.332
76.1200,0.361
76.1600,0.369
76.2000,0.340
76.2400,0.357
76.2800,0.285
76.3200,0.295
76.3600,0.333
76.4000,0.345
76.4400,0.337
76.4800,0.308
76.5200,0.317
76.5600,0.341
76.6000,0.306
76.6400,0.330
76.6800,0.340
76.7200,0.320
76.7600,0.339
76.8000,0.324
76.8400,0.331
76.8800,0.342
76.9200,0.300
76.9600,0.331
77.0000,0.357
77.0400,0.324
77.0800,0.337
77.1200,0.311
77.1600,0.332
77.2000,0.308
77.2400,0.314
77.2800,0.330
77.3200,0.336
77.3600,0.341
77.4000,0.372
77.4400,0.305
77.4800,0.293
77.5200,0.351
77.5600,0.349
77.6000,0.296
77.6400,0.361
77.6800,0.389
77.7200,0.413
77.7600,0.400
77.8000,0.352
77.8400,0.323
77.8800,0.302
77.9200,0.371
77.9600,0.358
78.0000,0.363
78.0400,0.372
78.0800,0.341
78.1200,0.379
78.1600,0.333
78.2000,0.340
78.2400,0.329
78.2800,0.360
78.3200,0.356
78.3600,0.361
78.4000,0.365
78.4400,0.338
78.4800,0.320
78.5200,0.344
78.5600,0.309
78.6000,0.337
78.6400,0.386
78.6800,0.403
78.7200,0.418
78.7600,0.429
78.8000,0.389
78.8400,0.373
78.8800,0.342
78.9200,0.372
78.9600,0.412
79.0000,0.322
79.0400,0.344
79.0800,0.357
79.1200,0.315
79.1600,0.343
79.2000,0.332
79.2400,0.331
79.2800,0.337
79.3200,0.349
79.3600,0.376
79.4000,0.326
79.4400,0.302
79.4800,0.346
79.5200,0.339
79.5600,0.341
79.6000,0.324
79.6400,0.333
79.6800,0.328
79.7200,0.303
79.7600,0.309
79.8000,0.306
79.8400,0.330
79.8800,0.328
79.9200,0.333
79.9600,0.324
80.0000,0.342
