theta,intensity
5.0000,5.699
5.0400,5.733
5.0800,5.533
5.1200,5.653
5.1600,5.589
5.2000,5.602
5.2400,5.452
5.2800,5.455
5.3200,5.481
5.3600,5.470
5.4000,5.523
5.4400,5.451
5.4800,5.346
5.5200,5.311
5.5600,5.213
5.6000,5.229
5.6400,5.144
5.6800,5.051
5.7200,5.054
5.7600,4.992
5.8000,4.864
5.8400,4.885
5.8800,4.754
5.9200,4.768
5.9600,4.765
6.0000,4.805
6.0400,4.682
6.0800,4.701
6.1200,4.525
6.1600,4.461
6.2000,4.481
6.2400,4.472
6.2800,4.375
6.3200,4.316
6.3600,4.567
6.4000,4.432
6.4400,4.356
6.4800,4.204
6.5200,4.199
6.5600,4.199
6.6000,4.073
6.6400,4.042
6.6800,4.348
6.7200,4.206
6.7600,4.084
6.8000,4.171
6.8400,3.969
6.8800,4.120
6.9200,4.275
6.9600,4.147
7.0000,4.095
7.0400,4.199
7.0800,4.137
7.1200,4.119
7.1600,3.957
7.2000,3.998
7.2400,4.009
7.2800,3.972
7.3200,4.002
7.3600,3.933
7.4000,3.998
7.4400,3.942
7.4800,4.063
7.5200,4.005
7.5600,4.101
7.6000,3.851
7.6400,3.863
7.6800,3.950
7.7200,3.913
7.7600,3.942
7.8000,3.864
7.8400,3.747
7.8800,3.971
7.9200,4.112
7.9600,3.878
8.0000,3.902
8.0400,3.835
8.0800,3.870
8.1200,3.969
8.1600,3.914
8.2000,3.964
8.2400,4.078
8.2800,3.866
8.3200,3.719
8.3600,3.927
8.4000,3.758
8.4400,4.004
8.4800,3.953
8.5200,3.837
8.5600,3.930
8.6000,3.940
8.6400,3.758
8.6800,3.767
8.7200,3.818
8.7600,3.784
8.8000,3.826
8.8400,3.828
8.8800,3.771
8.9200,3.892
8.9600,3.813
9.0000,3.718
9.0400,3.734
9.0800,3.713
9.1200,3.814
9.1600,3.785
9.2000,3.860
9.2400,3.799
9.2800,3.771
9.3200,3.788
9.3600,3.775
9.4000,3.742
9.4400,3.725
9.4800,3.606
9.5200,3.708
9.5600,3.697
9.6000,3.783
9.6400,3.741
9.6800,3.770
9.7200,3.787
9.7600,3.718
9.8000,3.714
9.8400,3.680
9.8800,3.587
9.9200,3.653
9.9600,3.574
10.0000,3.805
10.0400,3.718
10.0800,3.674
10.1200,3.614
10.1600,3.737
10.2000,3.686
10.2400,3.620
10.2800,3.706
10.3200,3.608
10.3600,3.684
10.4000,3.729
10.4400,3.612
10.4800,3.552
10.5200,3.492
10.5600,3.608
10.6000,3.599
10.6400,3.577
10.6800,3.769
10.7200,3.617
10.7600,3.567
10.8000,3.661
10.8400,3.524
10.8800,3.594
10.9200,3.589
10.9600,3.674
11.0000,3.471
11.0400,3.537
11.0800,3.577
11.1200,3.615
11.1600,3.549
11.2000,3.477
11.2400,3.598
11.2800,3.494
11.3200,3.593
11.3600,3.574
11.4000,3.468
11.4400,3.592
11.4800,3.602
11.5200,3.595
11.5600,3.547
11.6000,3.512
11.6400,3.485
11.6800,3.496
11.7200,3.381
11.7600,3.454
11.8000,3.538
11.8400,3.437
11.8800,3.637
11.9200,3.451
11.9600,3.544
12.0000,3.418
12.0400,3.276
12.0800,3.440
12.1200,3.563
12.1600,3.534
12.2000,3.410
12.2400,3.410
12.2800,3.493
12.3200,3.363
12.3600,3.461
12.4000,3.567
12.4400,3.571
12.4800,3.292
12.5200,3.447
12.5600,3.445
12.6000,3.284
12.6400,3.330
12.6800,3.585
12.7200,3.465
12.7600,3.396
12.8000,3.400
12.8400,3.549
12.8800,3.427
12.9200,3.472
12.9600,3.347
13.0000,3.392
13.0400,3.506
13.0800,3.468
13.1200,3.392
13.1600,3.350
13.2000,3.407
13.2400,3.393
13.2800,3.273
13.3200,3.243
13.3600,3.358
13.4000,3.432
13.4400,3.272
13.4800,3.288
13.5200,3.204
13.5600,3.242
13.6000,3.314
13.6400,3.292
13.6800,3.306
13.7200,3.320
13.7600,3.360
13.8000,3.258
13.8400,3.319
13.8800,3.408
13.9200,3.453
13.9600,3.362
14.0000,3.377
14.0400,3.173
14.0800,3.229
14.1200,3.262
14.1600,3.323
14.2000,3.196
14.2400,3.247
14.2800,3.340
14.3200,3.205
14.3600,3.188
14.4000,3.139
14.4400,3.164
14.4800,3.201
14.5200,3.268
14.5600,3.231
14.6000,3.177
14.6400,3.232
14.6800,3.192
14.7200,3.310
14.7600,3.214
14.8000,3.287
14.8400,3.270
14.8800,3.308
14.9200,3.264
14.9600,3.310
15.0000,3.163
15.0400,3.241
15.0800,3.188
15.1200,3.240
15.1600,3.120
15.2000,3.153
15.2400,3.023
15.2800,3.125
15.3200,3.164
15.3600,3.212
15.4000,3.022
15.4400,3.211
15.4800,3.231
15.5200,3.165
15.5600,3.169
15.6000,3.100
15.6400,3.286
15.6800,3.171
15.7200,3.202
15.7600,3.147
15.8000,3.113
15.8400,3.141
15.8800,3.088
15.9200,3.111
15.9600,2.936
16.0000,3.169
16.0400,3.056
16.0800,3.282
16.1200,3.104
16.1600,3.096
16.2000,3.081
16.2400,3.223
16.2800,3.139
16.3200,3.174
16.3600,3.057
16.4000,3.112
16.4400,3.147
16.4800,2.973
16.5200,3.176
16.5600,3.068
16.6000,3.074
16.6400,3.042
16.6800,3.169
16.7200,2.942
16.7600,3.049
16.8000,2.972
16.8400,2.967
16.8800,3.075
16.9200,3.107
16.9600,3.020
17.0000,2.929
17.0400,3.015
17.0800,3.131
17.1200,2.930
17.1600,2.998
17.2000,3.068
17.2400,2.987
17.2800,3.016
17.3200,2.951
17.3600,3.102
17.4000,3.023
17.4400,3.017
17.4800,2.736
17.5200,2.785
17.5600,2.922
17.6000,3.010
17.6400,2.913
17.6800,3.000
17.7200,2.852
17.7600,2.862
17.8000,2.978
17.8400,2.837
17.8800,2.951
17.9200,2.756
17.9600,2.845
18.0000,2.998
18.0400,2.856
18.0800,2.902
18.1200,3.076
18.1600,2.928
18.2000,2.972
18.2400,2.837
18.2800,2.921
18.3200,2.909
18.3600,2.758
18.4000,2.906
18.4400,2.863
18.4800,2.890
18.5200,2.954
18.5600,2.851
18.6000,2.830
18.6400,2.924
18.6800,2.968
18.7200,2.949
18.7600,2.803
18.8000,2.925
18.8400,2.798
18.8800,2.819
18.9200,2.714
18.9600,2.937
19.0000,2.807
19.0400,2.839
19.0800,2.759
19.1200,2.864
19.1600,2.923
19.2000,2.827
19.2400,2.886
19.2800,2.775
19.3200,2.736
19.3600,2.803
19.4000,2.777
19.4400,2.836
19.4800,2.749
19.5200,2.678
19.5600,2.741
19.6000,2.811
19.6400,2.773
19.6800,2.661
19.7200,2.760
19.7600,2.789
19.8000,2.818
19.8400,2.788
19.8800,2.711
19.9200,2.757
19.9600,2.801
20.0000,2.709
20.0400,2.751
20.0800,2.726
20.1200,2.689
20.1600,2.710
20.2000,2.739
20.2400,2.705
20.2800,2.696
20.3200,2.630
20.3600,2.730
20.4000,2.556
20.4400,2.720
20.4800,2.713
20.5200,2.624
20.5600,2.744
20.6000,2.794
20.6400,2.613
20.6800,2.749
20.7200,2.679
20.7600,2.569
20.8000,2.682
20.8400,2.702
20.8800,2.621
20.9200,2.471
20.9600,2.587
21.0000,2.630
21.0400,2.598
21.0800,2.636
21.1200,2.567
21.1600,2.621
21.2000,2.589
21.2400,2.585
21.2800,2.624
21.3200,2.674
21.3600,2.631
21.4000,2.728
21.4400,2.699
21.4800,2.715
21.5200,2.688
21.5600,2.737
21.6000,2.673
21.6400,2.518
21.6800,2.724
21.7200,2.640
21.7600,2.591
21.8000,2.599
21.8400,2.565
21.8800,2.616
21.9200,2.570
21.9600,2.540
22.0000,2.608
22.0400,2.636
22.0800,2.603
22.1200,2.669
22.1600,2.805
22.2000,2.713
22.2400,2.686
22.2800,2.702
22.3200,2.658
22.3600,2.666
22.4000,2.696
22.4400,2.450
22.4800,2.583
22.5200,2.531
22.5600,2.505
22.6000,2.625
22.6400,2.574
22.6800,2.588
22.7200,2.536
22.7600,2.652
22.8000,2.582
22.8400,2.596
22.8800,2.495
22.9200,2.491
22.9600,2.471
23.0000,2.553
23.0400,2.460
23.0800,2.439
23.1200,2.446
23.1600,2.485
23.2000,2.480
23.2400,2.421
23.2800,2.526
23.3200,2.474
23.3600,2.475
23.4000,2.540
23.4400,2.602
23.4800,2.433
23.5200,2.486
23.5600,2.483
23.6000,2.604
23.6400,2.461
23.6800,2.399
23.7200,2.401
23.7600,2.351
23.8000,2.464
23.8400,2.470
23.8800,2.473
23.9200,2.423
23.9600,2.463
24.0000,2.428
24.0400,2.379
24.0800,2.466
24.1200,2.515
24.1600,2.378
24.2000,2.452
24.2400,2.511
24.2800,2.385
24.3200,2.378
24.3600,2.419
24.4000,2.251
24.4400,2.354
24.4800,2.243
24.5200,2.220
24.5600,2.336
24.6000,2.401
24.6400,2.344
24.6800,2.429
24.7200,2.429
24.7600,2.213
24.8000,2.326
24.8400,2.445
24.8800,2.213
24.9200,2.297
24.9600,2.272
25.0000,2.317
25.0400,2.328
25.0800,2.342
25.1200,2.257
25.1600,2.279
25.2000,2.223
25.2400,2.327
25.2800,2.483
25.3200,2.308
25.3600,2.358
25.4000,2.305
25.4400,2.157
25.4800,2.279
25.5200,2.235
25.5600,2.309
25.6000,2.349
25.6400,2.333
25.6800,2.272
25.7200,2.382
25.7600,2.352
25.8000,2.285
25.8400,2.325
25.8800,2.299
25.9200,2.282
25.9600,2.271
26.0000,2.254
26.0400,2.291
26.0800,2.399
26.1200,2.310
26.1600,2.382
26.2000,2.260
26.2400,2.302
26.2800,2.266
26.3200,2.201
26.3600,2.404
26.4000,2.224
26.4400,2.319
26.4800,2.224
26.5200,2.275
26.5600,2.252
26.6000,2.144
26.6400,2.180
26.6800,2.184
26.7200,2.241
26.7600,2.227
26.8000,2.148
26.8400,2.213
26.8800,2.321
26.9200,2.274
26.9600,2.338
27.0000,2.219
27.0400,2.296
27.0800,2.258
27.1200,2.232
27.1600,2.195
27.2000,2.348
27.2400,2.267
27.2800,2.166
27.3200,2.193
27.3600,2.087
27.4000,2.175
27.4400,2.242
27.4800,2.224
27.5200,2.201
27.5600,2.207
27.6000,2.255
27.6400,2.119
27.6800,2.167
27.7200,2.200
27.7600,2.190
27.8000,2.154
27.8400,2.238
27.8800,2.182
27.9200,2.311
27.9600,2.190
28.0000,2.181
28.0400,2.133
28.0800,2.150
28.1200,2.112
28.1600,2.203
28.2000,2.211
28.2400,2.148
28.2800,2.250
28.3200,2.192
28.3600,2.230
28.4000,2.278
28.4400,2.334
28.4800,2.327
28.5200,2.250
28.5600,2.178
28.6000,2.216
28.6400,2.174
28.6800,2.286
28.7200,2.131
28.7600,2.166
28.8000,2.214
28.8400,2.151
28.8800,2.187
28.9200,2.194
28.9600,2.176
29.0000,2.289
29.0400,2.188
29.0800,2.138
29.1200,2.114
29.1600,2.182
29.2000,2.085
29.2400,2.060
29.2800,2.158
29.3200,2.133
29.3600,2.061
29.4000,1.998
29.4400,2.000
29.4800,2.026
29.5200,2.079
29.5600,2.085
29.6000,1.985
29.6400,1.981
29.6800,2.018
29.7200,2.040
29.7600,1.975
29.8000,2.055
29.8400,1.935
29.8800,2.070
29.9200,1.964
29.9600,1.913
30.0000,1.913
30.0400,1.971
30.0800,1.866
30.1200,1.928
30.1600,1.905
30.2000,2.013
30.2400,1.985
30.2800,2.009
30.3200,2.032
30.3600,1.968
30.4000,1.848
30.4400,1.983
30.4800,1.901
30.5200,1.925
30.5600,1.905
30.6000,2.089
30.6400,1.958
30.6800,1.901
30.7200,1.989
30.7600,1.892
30.8000,1.839
30.8400,1.735
30.8800,1.832
30.9200,1.884
30.9600,1.795
31.0000,1.805
31.0400,1.834
31.0800,1.934
31.1200,1.750
31.1600,1.860
31.2000,1.867
31.2400,1.881
31.2800,1.793
31.3200,1.796
31.3600,1.831
31.4000,1.763
31.4400,1.754
31.4800,1.807
31.5200,1.833
31.5600,1.869
31.6000,1.763
31.6400,1.830
31.6800,1.795
31.7200,1.717
31.7600,1.788
31.8000,1.670
31.8400,1.718
31.8800,1.627
31.9200,1.766
31.9600,1.776
32.0000,1.714
32.0400,1.721
32.0800,1.807
32.1200,1.668
32.1600,1.747
32.2000,1.709
32.2400,1.853
32.2800,1.833
32.3200,1.767
32.3600,1.812
32.4000,1.821
32.4400,1.777
32.4800,1.719
32.5200,1.827
32.5600,1.909
32.6000,1.881
32.6400,1.898
32.6800,1.941
32.7200,2.150
32.7600,2.061
32.8000,2.392
32.8400,2.693
32.8800,2.895
32.9200,3.240
32.9600,3.562
33.0000,3.635
33.0400,3.685
33.0800,3.245
33.1200,2.965
33.1600,2.652
33.2000,2.497
33.2400,2.255
33.2800,2.170
33.3200,1.914
33.3600,1.989
33.4000,1.879
33.4400,1.856
33.4800,1.775
33.5200,1.821
33.5600,1.786
33.6000,1.746
33.6400,1.813
33.6800,1.679
33.7200,1.681
33.7600,1.633
33.8000,1.712
33.8400,1.546
33.8800,1.725
33.9200,1.719
33.9600,1.532
34.0000,1.589
34.0400,1.631
34.0800,1.615
34.1200,1.614
34.1600,1.645
34.2000,1.692
34.2400,1.683
34.2800,1.598
34.3200,1.677
34.3600,1.627
34.4000,1.695
34.4400,1.628
34.4800,1.633
34.5200,1.571
34.5600,1.617
34.6000,1.588
34.6400,1.659
34.6800,1.588
34.7200,1.707
34.7600,1.641
34.8000,1.664
34.8400,1.604
34.8800,1.578
34.9200,1.590
34.9600,1.540
35.0000,1.537
35.0400,1.581
35.0800,1.604
35.1200,1.617
35.1600,1.591
35.2000,1.579
35.2400,1.555
35.2800,1.518
35.3200,1.561
35.3600,1.617
35.4000,1.541
35.4400,1.946
35.4800,2.119
35.5200,2.098
35.5600,2.163
35.6000,2.056
35.6400,1.922
35.6800,1.850
35.7200,1.806
35.7600,1.750
35.8000,1.769
35.8400,1.700
35.8800,1.715
35.9200,1.731
35.9600,1.694
36.0000,1.675
36.0400,1.719
36.0800,1.555
36.1200,1.654
36.1600,1.592
36.2000,1.685
36.2400,1.583
36.2800,1.679
36.3200,1.660
36.3600,1.593
36.4000,1.625
36.4400,1.684
36.4800,1.564
36.5200,1.611
36.5600,1.581
36.6000,1.645
36.6400,1.602
36.6800,1.542
36.7200,1.632
36.7600,1.697
36.8000,1.702
36.8400,1.804
36.8800,1.806
36.9200,1.684
36.9600,1.846
37.0000,1.851
37.0400,1.849
37.0800,1.851
37.1200,1.800
37.1600,1.820
37.2000,1.909
37.2400,2.095
37.2800,2.350
37.3200,3.207
37.3600,3.607
37.4000,3.623
37.4400,3.829
37.4800,3.932
37.5200,4.131
37.5600,4.646
37.6000,6.005
37.6400,8.092
37.6800,10.297
37.7200,12.408
37.7600,12.710
37.8000,11.794
37.8400,10.792
37.8800,9.518
37.9200,7.974
37.9600,7.023
38.0000,6.289
38.0400,5.578
38.0800,4.644
38.1200,4.361
38.1600,4.048
38.2000,3.778
38.2400,3.755
38.2800,3.458
38.3200,3.356
38.3600,3.169
38.4000,3.019
38.4400,2.701
38.4800,2.558
38.5200,2.378
38.5600,2.184
38.6000,2.071
38.6400,1.922
38.6800,1.816
38.7200,1.779
38.7600,1.833
38.8000,1.757
38.8400,1.986
38.8800,2.115
38.9200,2.443
38.9600,2.300
39.0000,2.202
39.0400,2.083
39.0800,1.882
39.1200,1.765
39.1600,1.780
39.2000,1.639
39.2400,1.675
39.2800,1.747
39.3200,1.688
39.3600,1.671
39.4000,1.718
39.4400,1.693
39.4800,1.744
39.5200,1.676
39.5600,1.689
39.6000,1.659
39.6400,1.610
39.6800,1.723
39.7200,1.644
39.7600,1.710
39.8000,1.611
39.8400,1.688
39.8800,1.645
39.9200,1.773
39.9600,1.755
40.0000,1.805
40.0400,1.746
40.0800,1.779
40.1200,1.863
40.1600,1.849
40.2000,1.933
40.2400,2.133
40.2800,1.999
40.3200,2.007
40.3600,1.937
40.4000,1.925
40.4400,1.911
40.4800,1.816
40.5200,1.777
40.5600,1.666
40.6000,1.732
40.6400,1.694
40.6800,1.637
40.7200,1.577
40.7600,1.552
40.8000,1.558
40.8400,1.468
40.8800,1.389
40.9200,1.648
40.9600,1.493
41.0000,1.473
41.0400,1.415
41.0800,1.431
41.1200,1.450
41.1600,1.408
41.2000,1.493
41.2400,1.405
41.2800,1.437
41.3200,1.433
41.3600,1.436
41.4000,1.484
41.4400,1.426
41.4800,1.432
41.5200,1.321
41.5600,1.388
41.6000,1.412
41.6400,1.323
41.6800,1.294
41.7200,1.424
41.7600,1.329
41.8000,1.281
41.8400,1.299
41.8800,1.226
41.9200,1.302
41.9600,1.278
42.0000,1.226
42.0400,1.283
42.0800,1.209
42.1200,1.221
42.1600,1.202
42.2000,1.279
42.2400,1.252
42.2800,1.308
42.3200,1.222
42.3600,1.239
42.4000,1.264
42.4400,1.218
42.4800,1.217
42.5200,1.194
42.5600,1.183
42.6000,1.178
42.6400,1.160
42.6800,1.242
42.7200,1.248
42.7600,1.249
42.8000,1.251
42.8400,1.296
42.8800,1.260
42.9200,1.260
42.9600,1.312
43.0000,1.327
43.0400,1.248
43.0800,1.268
43.1200,1.312
43.1600,1.335
43.2000,1.394
43.2400,1.459
43.2800,1.460
43.3200,1.513
43.3600,1.594
43.4000,1.588
43.4400,1.576
43.4800,1.655
43.5200,1.753
43.5600,1.927
43.6000,1.899
43.6400,2.169
43.6800,2.480
43.7200,2.919
43.7600,3.212
43.8000,3.771
43.8400,4.058
43.8800,4.213
43.9200,4.070
43.9600,4.072
44.0000,3.699
44.0400,3.442
44.0800,3.225
44.1200,3.061
44.1600,2.711
44.2000,2.430
44.2400,2.229
44.2800,2.037
44.3200,1.897
44.3600,1.623
44.4000,1.573
44.4400,1.437
44.4800,1.473
44.5200,1.456
44.5600,1.315
44.6000,1.292
44.6400,1.249
44.6800,1.153
44.7200,1.187
44.7600,1.133
44.8000,1.130
44.8400,1.132
44.8800,1.222
44.9200,1.189
44.9600,1.055
45.0000,1.112
45.0400,0.994
45.0800,1.152
45.1200,1.027
45.1600,1.143
45.2000,1.079
45.2400,1.054
45.2800,1.053
45.3200,0.980
45.3600,1.015
45.4000,1.071
45.4400,1.077
45.4800,1.016
45.5200,1.041
45.5600,0.972
45.6000,0.962
45.6400,0.949
45.6800,0.970
45.7200,0.976
45.7600,0.951
45.8000,1.082
45.8400,1.012
45.8800,1.000
45.9200,1.029
45.9600,0.970
46.0000,0.956
46.0400,0.931
46.0800,0.938
46.1200,0.922
46.1600,0.999
46.2000,0.941
46.2400,0.959
46.2800,0.952
46.3200,0.972
46.3600,0.962
46.4000,0.945
46.4400,0.969
46.4800,0.984
46.5200,0.940
46.5600,0.960
46.6000,0.919
46.6400,0.927
46.6800,0.937
46.7200,0.973
46.7600,0.931
46.8000,0.799
46.8400,0.938
46.8800,0.892
46.9200,0.878
46.9600,0.899
47.0000,0.888
47.0400,0.981
47.0800,0.946
47.1200,0.922
47.1600,0.813
47.2000,0.893
47.2400,0.862
47.2800,0.923
47.3200,0.899
47.3600,0.941
47.4000,0.945
47.4400,0.908
47.4800,0.950
47.5200,0.957
47.5600,0.867
47.6000,0.829
47.6400,0.832
47.6800,0.930
47.7200,0.862
47.7600,0.900
47.8000,0.918
47.8400,0.860
47.8800,0.920
47.9200,0.954
47.9600,0.940
48.0000,0.903
48.0400,0.870
48.0800,0.862
48.1200,0.951
48.1600,0.893
48.2000,0.858
48.2400,0.875
48.2800,0.807
48.3200,0.903
48.3600,0.898
48.4000,0.870
48.4400,0.836
48.4800,0.817
48.5200,0.873
48.5600,0.790
48.6000,0.880
48.6400,0.881
48.6800,0.887
48.7200,0.833
48.7600,0.811
48.8000,0.895
48.8400,0.868
48.8800,0.853
48.9200,0.829
48.9600,0.870
49.0000,0.854
49.0400,0.888
49.0800,0.728
49.1200,0.786
49.1600,0.896
49.2000,0.849
49.2400,0.918
49.2800,0.839
49.3200,0.844
49.3600,0.885
49.4000,0.977
49.4400,0.979
49.4800,0.903
49.5200,0.837
49.5600,0.843
49.6000,0.869
49.6400,0.883
49.6800,0.881
49.7200,0.854
49.7600,0.880
49.8000,0.903
49.8400,0.849
49.8800,0.841
49.9200,0.930
49.9600,0.869
50.0000,0.858
50.0400,0.857
50.0800,0.884
50.1200,0.779
50.1600,0.811
50.2000,0.890
50.2400,0.766
50.2800,0.827
50.3200,0.853
50.3600,0.750
50.4000,0.840
50.4400,0.797
50.4800,0.798
50.5200,0.813
50.5600,0.823
50.6000,0.785
50.6400,0.799
50.6800,0.812
50.7200,0.833
50.7600,0.832
50.8000,0.771
50.8400,0.700
50.8800,0.817
50.9200,0.749
50.9600,0.790
51.0000,0.769
51.0400,0.766
51.0800,0.845
51.1200,0.783
51.1600,0.795
51.2000,0.767
51.2400,0.801
51.2800,0.779
51.3200,0.800
51.3600,0.792
51.4000,0.716
51.4400,0.788
51.4800,0.815
51.5200,0.802
51.5600,0.756
51.6000,0.853
51.6400,0.741
51.6800,0.741
51.7200,0.738
51.7600,0.766
51.8000,0.773
51.8400,0.781
51.8800,0.732
51.9200,0.830
51.9600,0.741
52.0000,0.777
52.0400,0.755
52.0800,0.690
52.1200,0.711
52.1600,0.773
52.2000,0.824
52.2400,0.757
52.2800,0.834
52.3200,0.796
52.3600,0.783
52.4000,0.801
52.4400,0.712
52.4800,0.805
52.5200,0.760
52.5600,0.737
52.6000,0.759
52.6400,0.780
52.6800,0.788
52.7200,0.728
52.7600,0.773
52.8000,0.717
52.8400,0.722
52.8800,0.704
52.9200,0.701
52.9600,0.695
53.0000,0.730
53.0400,0.787
53.0800,0.798
53.1200,0.738
53.1600,0.716
53.2000,0.726
53.2400,0.667
53.2800,0.699
53.3200,0.745
53.3600,0.673
53.4000,0.722
53.4400,0.788
53.4800,0.700
53.5200,0.742
53.5600,0.717
53.6000,0.708
53.6400,0.765
53.6800,0.711
53.7200,0.760
53.7600,0.747
53.8000,0.748
53.8400,0.716
53.8800,0.738
53.9200,0.747
53.9600,0.703
54.0000,0.766
54.0400,0.672
54.0800,0.678
54.1200,0.744
54.1600,0.715
54.2000,0.644
54.2400,0.666
54.2800,0.736
54.3200,0.651
54.3600,0.745
54.4000,0.747
54.4400,0.745
54.4800,0.705
54.5200,0.784
54.5600,0.729
54.6000,0.691
54.6400,0.684
54.6800,0.773
54.7200,0.707
54.7600,0.774
54.8000,0.771
54.8400,0.798
54.8800,0.776
54.9200,0.787
54.9600,0.893
55.0000,0.903
55.0400,0.968
55.0800,0.938
55.1200,1.015
55.1600,1.014
55.2000,1.087
55.2400,1.061
55.2800,1.144
55.3200,1.110
55.3600,1.122
55.4000,1.020
55.4400,1.013
55.4800,0.868
55.5200,0.870
55.5600,0.803
55.6000,0.835
55.6400,0.750
55.6800,0.737
55.7200,0.707
55.7600,0.791
55.8000,0.748
55.8400,0.730
55.8800,0.702
55.9200,0.617
55.9600,0.663
56.0000,0.649
56.0400,0.715
56.0800,0.671
56.1200,0.687
56.1600,0.625
56.2000,0.631
56.2400,0.708
56.2800,0.696
56.3200,0.687
56.3600,0.650
56.4000,0.666
56.4400,0.629
56.4800,0.631
56.5200,0.620
56.5600,0.588
56.6000,0.618
56.6400,0.569
56.6800,0.619
56.7200,0.668
56.7600,0.682
56.8000,0.609
56.8400,0.672
56.8800,0.583
56.9200,0.682
56.9600,0.605
57.0000,0.641
57.0400,0.649
57.0800,0.659
57.1200,0.653
57.1600,0.708
57.2000,0.648
57.2400,0.619
57.2800,0.643
57.3200,0.582
57.3600,0.661
57.4000,0.573
57.4400,0.625
57.4800,0.596
57.5200,0.586
57.5600,0.617
57.6000,0.593
57.6400,0.600
57.6800,0.594
57.7200,0.650
57.7600,0.577
57.8000,0.644
57.8400,0.607
57.8800,0.592
57.9200,0.605
57.9600,0.581
58.0000,0.626
58.0400,0.584
58.0800,0.693
58.1200,0.620
58.1600,0.613
58.2000,0.612
58.2400,0.615
58.2800,0.623
58.3200,0.537
58.3600,0.588
58.4000,0.625
58.4400,0.629
58.4800,0.651
58.5200,0.619
58.5600,0.600
58.6000,0.708
58.6400,0.613
58.6800,0.647
58.7200,0.685
58.7600,0.579
58.8000,0.646
58.8400,0.541
58.8800,0.593
58.9200,0.646
58.9600,0.582
59.0000,0.607
59.0400,0.494
59.0800,0.569
59.1200,0.537
59.1600,0.549
59.2000,0.564
59.2400,0.594
59.2800,0.558
59.3200,0.590
59.3600,0.586
59.4000,0.603
59.4400,0.596
59.4800,0.510
59.5200,0.563
59.5600,0.516
59.6000,0.550
59.6400,0.486
59.6800,0.572
59.7200,0.524
59.7600,0.575
59.8000,0.539
59.8400,0.540
59.8800,0.499
59.9200,0.585
59.9600,0.586
60.0000,0.584
60.0400,0.538
60.0800,0.612
60.1200,0.540
60.1600,0.594
60.2000,0.526
60.2400,0.532
60.2800,0.547
60.3200,0.555
60.3600,0.549
60.4000,0.551
60.4400,0.570
60.4800,0.545
60.5200,0.547
60.5600,0.540
60.6000,0.536
60.6400,0.559
60.6800,0.567
60.7200,0.531
60.7600,0.509
60.8000,0.603
60.8400,0.504
60.8800,0.513
60.9200,0.563
60.9600,0.561
61.0000,0.520
61.0400,0.616
61.0800,0.561
61.1200,0.520
61.1600,0.542
61.2000,0.569
61.2400,0.631
61.2800,0.515
61.3200,0.514
61.3600,0.482
61.4000,0.635
61.4400,0.568
61.4800,0.562
61.5200,0.527
61.5600,0.492
61.6000,0.545
61.6400,0.493
61.6800,0.554
61.7200,0.520
61.7600,0.500
61.8000,0.524
61.8400,0.566
61.8800,0.486
61.9200,0.505
61.9600,0.496
62.0000,0.455
62.0400,0.487
62.0800,0.526
62.1200,0.492
62.1600,0.505
62.2000,0.478
62.2400,0.504
62.2800,0.519
62.3200,0.491
62.3600,0.496
62.4000,0.483
62.4400,0.536
62.4800,0.497
62.5200,0.514
62.5600,0.491
62.6000,0.534
62.6400,0.534
62.6800,0.535
62.7200,0.513
62.7600,0.523
62.8000,0.500
62.8400,0.481
62.8800,0.529
62.9200,0.510
62.9600,0.546
63.0000,0.567
63.0400,0.606
63.0800,0.591
63.1200,0.560
63.1600,0.575
63.2000,0.541
63.2400,0.647
63.2800,0.623
63.3200,0.677
63.3600,0.835
63.4000,0.828
63.4400,0.819
63.4800,0.892
63.5200,1.006
63.5600,1.159
63.6000,1.301
63.6400,1.572
63.6800,1.844
63.7200,2.162
63.7600,2.164
63.8000,2.089
63.8400,1.995
63.8800,1.915
63.9200,1.792
63.9600,1.678
64.0000,1.508
64.0400,1.378
64.0800,1.271
64.1200,1.104
64.1600,1.076
64.2000,1.080
64.2400,0.980
64.2800,1.008
64.3200,0.926
64.3600,0.870
64.4000,0.777
64.4400,0.719
64.4800,0.660
64.5200,0.674
64.5600,0.596
64.6000,0.613
64.6400,0.575
64.6800,0.578
64.7200,0.639
64.7600,0.594
64.8000,0.563
64.8400,0.563
64.8800,0.492
64.9200,0.542
64.9600,0.535
65.0000,0.521
65.0400,0.438
65.0800,0.493
65.1200,0.510
65.1600,0.490
65.2000,0.499
65.2400,0.475
65.2800,0.530
65.3200,0.531
65.3600,0.473
65.4000,0.528
65.4400,0.512
65.4800,0.503
65.5200,0.492
65.5600,0.607
65.6000,0.604
65.6400,0.573
65.6800,0.580
65.7200,0.581
65.7600,0.606
65.8000,0.668
65.8400,0.695
65.8800,0.666
65.9200,0.668
65.9600,0.661
66.0000,0.646
66.0400,0.680
66.0800,0.600
66.1200,0.571
66.1600,0.610
66.2000,0.571
66.2400,0.536
66.2800,0.509
66.3200,0.488
66.3600,0.562
66.4000,0.446
66.4400,0.507
66.4800,0.489
66.5200,0.484
66.5600,0.492
66.6000,0.474
66.6400,0.478
66.6800,0.466
66.7200,0.464
66.7600,0.411
66.8000,0.461
66.8400,0.469
66.8800,0.440
66.9200,0.473
66.9600,0.468
67.0000,0.399
67.0400,0.423
67.0800,0.451
67.1200,0.448
67.1600,0.496
67.2000,0.447
67.2400,0.396
67.2800,0.423
67.3200,0.441
67.3600,0.404
67.4000,0.395
67.4400,0.404
67.4800,0.403
67.5200,0.423
67.5600,0.450
67.6000,0.398
67.6400,0.435
67.6800,0.428
67.7200,0.473
67.7600,0.414
67.8000,0.465
67.8400,0.424
67.8800,0.499
67.9200,0.430
67.9600,0.479
68.0000,0.451
68.0400,0.442
68.0800,0.395
68.1200,0.448
68.1600,0.462
68.2000,0.439
68.2400,0.456
68.2800,0.475
68.3200,0.433
68.3600,0.427
68.4000,0.430
68.4400,0.440
68.4800,0.391
68.5200,0.410
68.5600,0.448
68.6000,0.476
68.6400,0.438
68.6800,0.440
68.7200,0.464
68.7600,0.441
68.8000,0.506
68.8400,0.497
68.8800,0.487
68.9200,0.507
68.9600,0.535
69.0000,0.545
69.0400,0.559
69.0800,0.514
69.1200,0.569
69.1600,0.555
69.2000,0.607
69.2400,0.581
69.2800,0.605
69.3200,0.574
69.3600,0.552
69.4000,0.517
69.4400,0.543
69.4800,0.562
69.5200,0.501
69.5600,0.446
69.6000,0.491
69.6400,0.466
69.6800,0.446
69.7200,0.478
69.7600,0.426
69.8000,0.488
69.8400,0.435
69.8800,0.392
69.9200,0.442
69.9600,0.421
70.0000,0.392
70.0400,0.366
70.0800,0.398
70.1200,0.363
70.1600,0.397
70.2000,0.417
70.2400,0.347
70.2800,0.374
70.3200,0.421
70.3600,0.391
70.4000,0.384
70.4400,0.391
70.4800,0.383
70.5200,0.382
70.5600,0.373
70.6000,0.432
70.6400,0.366
70.6800,0.365
70.7200,0.397
70.7600,0.398
70.8000,0.423
70.8400,0.409
70.8800,0.423
70.9200,0.350
70.9600,0.337
71.0000,0.415
71.0400,0.424
71.0800,0.381
71.1200,0.384
71.1600,0.390
71.2000,0.410
71.2400,0.439
71.2800,0.407
71.3200,0.396
71.3600,0.365
71.4000,0.383
71.4400,0.363
71.4800,0.371
71.5200,0.371
71.5600,0.382
71.6000,0.392
71.6400,0.366
71.6800,0.400
71.7200,0.344
71.7600,0.370
71.8000,0.357
71.8400,0.371
71.8800,0.370
71.9200,0.367
71.9600,0.313
72.0000,0.406
72.0400,0.370
72.0800,0.374
72.1200,0.360
72.1600,0.360
72.2000,0.374
72.2400,0.398
72.2800,0.399
72.3200,0.390
72.3600,0.393
72.4000,0.377
72.4400,0.350
72.4800,0.399
72.5200,0.387
72.5600,0.382
72.6000,0.382
72.6400,0.370
72.6800,0.434
72.7200,0.393
72.7600,0.396
72.8000,0.361
72.8400,0.339
72.8800,0.355
72.9200,0.356
72.9600,0.323
73.0000,0.359
73.0400,0.381
73.0800,0.320
73.1200,0.327
73.1600,0.372
73.2000,0.403
73.2400,0.326
73.2800,0.358
73.3200,0.342
73.3600,0.354
73.4000,0.347
73.4400,0.367
73.4800,0.379
73.5200,0.362
73.5600,0.363
73.6000,0.337
73.6400,0.342
73.6800,0.369
73.7200,0.300
73.7600,0.308
73.8000,0.354
73.8400,0.351
73.8800,0.347
73.9200,0.304
73.9600,0.335
74.0000,0.332
74.0400,0.299
74.0800,0.340
74.1200,0.304
74.1600,0.365
74.2000,0.358
74.2400,0.325
74.2800,0.345
74.3200,0.330
74.3600,0.313
74.4000,0.354
74.4400,0.352
74.4800,0.395
74.5200,0.338
74.5600,0.342
74.6000,0.377
74.6400,0.367
74.6800,0.356
74.7200,0.385
74.7600,0.400
74.8000,0.357
74.8400,0.341
74.8800,0.369
74.9200,0.349
74.9600,0.426
75.0000,0.389
75.0400,0.404
75.0800,0.409
75.1200,0.429
75.1600,0.369
75.2000,0.399
75.2400,0.338
75.2800,0.396
75.3200,0.368
75.3600,0.419
75.4000,0.395
75.4400,0.376
75.4800,0.394
75.5200,0.412
75.5600,0.385
75.6000,0.406
75.6400,0.397
75.6800,0.389
75.7200,0.404
75.7600,0.447
75.8000,0.412
75.8400,0.424
75.8800,0.426
75.9200,0.474
75.9600,0.501
76.0000,0.526
76.0400,0.586
76.0800,0.577
76.1200,0.674
76.1600,0.758
76.2000,0.839
76.2400,0.981
76.2800,1.118
76.3200,1.164
76.3600,1.229
76.4000,1.315
76.4400,1.529
76.4800,1.630
76.5200,1.620
76.5600,1.453
76.6000,1.452
76.6400,1.416
76.6800,1.366
76.7200,1.289
76.7600,1.157
76.8000,1.122
76.8400,1.023
76.8800,0.963
76.9200,0.984
76.9600,0.946
77.0000,0.876
77.0400,0.807
77.0800,0.766
77.1200,0.794
77.1600,0.718
77.2000,0.747
77.2400,0.687
77.2800,0.575
77.3200,0.598
77.3600,0.602
77.4000,0.503
77.4400,0.475
77.4800,0.495
77.5200,0.406
77.5600,0.432
77.6000,0.409
77.6400,0.441
77.6800,0.379
77.7200,0.418
77.7600,0.396
77.8000,0.379
77.8400,0.398
77.8800,0.414
77.9200,0.407
77.9600,0.375
78.0000,0.495
78.0400,0.399
78.0800,0.412
78.1200,0.396
78.1600,0.391
78.2000,0.395
78.2400,0.429
78.2800,0.391
78.3200,0.374
78.3600,0.345
78.4000,0.355
78.4400,0.343
78.4800,0.375
78.5200,0.366
78.5600,0.403
78.6000,0.381
78.6400,0.409
78.6800,0.332
78.7200,0.350
78.7600,0.349
78.8000,0.352
78.8400,0.331
78.8800,0.313
78.9200,0.385
78.9600,0.356
79.0000,0.338
79.0400,0.357
79.0800,0.304
79.1200,0.328
79.1600,0.277
79.2000,0.306
79.2400,0.350
79.2800,0.329
79.3200,0.354
79.3600,0.353
79.4000,0.354
79.4400,0.279
79.4800,0.309
79.5200,0.357
79.5600,0.332
79.6000,0.364
79.6400,0.420
79.6800,0.424
79.7200,0.366
79.7600,0.358
79.8000,0.342
79.8400,0.386
79.8800,0.371
79.9200,0.339
79.9600,0.382
80.0000,0.427
