theta,intensity
5.0000,4.666
5.0400,4.801
5.0800,4.675
5.1200,4.555
5.1600,4.571
5.2000,4.552
5.2400,4.610
5.2800,4.584
5.3200,4.624
5.3600,4.643
5.4000,4.514
5.4400,4.515
5.4800,4.500
5.5200,4.516
5.5600,4.585
5.6000,4.490
5.6400,4.282
5.6800,4.463
5.7200,4.464
5.7600,4.459
5.8000,4.419
5.8400,4.380
5.8800,4.351
5.9200,4.191
5.9600,4.290
6.0000,4.183
6.0400,4.211
6.0800,4.227
6.1200,4.294
6.1600,4.134
6.2000,4.188
6.2400,4.180
6.2800,4.049
6.3200,4.022
6.3600,4.126
6.4000,4.010
6.4400,4.157
6.4800,4.088
6.5200,4.120
6.5600,4.179
6.6000,4.157
6.6400,3.987
6.6800,3.955
6.7200,4.050
6.7600,3.967
6.8000,4.025
6.8400,4.008
6.8800,3.971
6.9200,4.037
6.9600,4.028
7.0000,3.983
7.0400,3.948
7.0800,3.989
7.1200,4.027
7.1600,4.021
7.2000,3.999
7.2400,4.023
7.2800,4.015
7.3200,3.956
7.3600,4.046
7.4000,3.933
7.4400,4.051
7.4800,4.053
7.5200,3.972
7.5600,3.958
7.6000,3.901
7.6400,3.958
7.6800,3.876
7.7200,3.959
7.7600,3.900
7.8000,4.017
7.8400,4.038
7.8800,3.983
7.9200,3.879
7.9600,3.889
8.0000,3.881
8.0400,3.942
8.0800,3.833
8.1200,3.832
8.1600,3.894
8.2000,3.814
8.2400,3.899
8.2800,3.834
8.3200,3.745
8.3600,3.850
8.4000,3.859
8.4400,3.950
8.4800,3.925
8.5200,3.770
8.5600,3.918
8.6000,3.716
8.6400,3.825
8.6800,3.760
8.7200,3.809
8.7600,3.811
8.8000,3.774
8.8400,3.837
8.8800,3.769
8.9200,3.656
8.9600,3.826
9.0000,3.727
9.0400,3.889
9.0800,3.781
9.1200,3.727
9.1600,3.816
9.2000,3.759
9.2400,3.793
9.2800,3.816
9.3200,3.682
9.3600,3.750
9.4000,3.726
9.4400,3.753
9.4800,3.649
9.5200,3.721
9.5600,3.762
9.6000,3.781
9.6400,3.713
9.6800,3.721
9.7200,3.730
9.7600,3.587
9.8000,3.707
9.8400,3.785
9.8800,3.706
9.9200,3.774
9.9600,3.801
10.0000,3.706
10.0400,3.627
10.0800,3.623
10.1200,3.648
10.1600,3.665
10.2000,3.705
10.2400,3.804
10.2800,3.591
10.3200,3.647
10.3600,3.497
10.4000,3.565
10.4400,3.537
10.4800,3.552
10.5200,3.550
10.5600,3.645
10.6000,3.635
10.6400,3.541
10.6800,3.596
10.7200,3.480
10.7600,3.554
10.8000,3.684
10.8400,3.568
10.8800,3.576
10.9200,3.655
10.9600,3.672
11.0000,3.597
11.0400,3.614
11.0800,3.548
11.1200,3.666
11.1600,3.602
11.2000,3.446
11.2400,3.449
11.2800,3.501
11.3200,3.543
11.3600,3.483
11.4000,3.472
11.4400,3.530
11.4800,3.511
11.5200,3.506
11.5600,3.543
11.6000,3.503
11.6400,3.565
11.6800,3.482
11.7200,3.621
11.7600,3.512
11.8000,3.478
11.8400,3.470
11.8800,3.480
11.9200,3.452
11.9600,3.432
12.0000,3.460
12.0400,3.378
12.0800,3.494
12.1200,3.486
12.1600,3.530
12.2000,3.470
12.2400,3.505
12.2800,3.399
12.3200,3.410
12.3600,3.413
12.4000,3.403
12.4400,3.491
12.4800,3.463
12.5200,3.455
12.5600,3.506
12.6000,3.381
12.6400,3.367
12.6800,3.441
12.7200,3.393
12.7600,3.491
12.8000,3.373
12.8400,3.393
12.8800,3.366
12.9200,3.504
12.9600,3.347
13.0000,3.320
13.0400,3.360
13.0800,3.335
13.1200,3.417
13.1600,3.358
13.2000,3.313
13.2400,3.220
13.2800,3.489
13.3200,3.285
13.3600,3.373
13.4000,3.341
13.4400,3.462
13.4800,3.441
13.5200,3.331
13.5600,3.367
13.6000,3.362
13.6400,3.172
13.6800,3.262
13.7200,3.381
13.7600,3.321
13.8000,3.257
13.8400,3.362
13.8800,3.359
13.9200,3.295
13.9600,3.311
14.0000,3.332
14.0400,3.315
14.0800,3.288
14.1200,3.306
14.1600,3.242
14.2000,3.262
14.2400,3.250
14.2800,3.165
14.3200,3.221
14.3600,3.342
14.4000,3.211
14.4400,3.150
14.4800,3.195
14.5200,3.258
14.5600,3.263
14.6000,3.247
14.6400,3.299
14.6800,3.151
14.7200,3.274
14.7600,3.254
14.8000,3.165
14.8400,3.200
14.8800,3.167
14.9200,3.259
14.9600,3.208
15.0000,3.268
15.0400,3.143
15.0800,3.217
15.1200,3.250
15.1600,3.298
15.2000,3.140
15.2400,3.247
15.2800,3.256
15.3200,3.130
15.3600,3.107
15.4000,3.159
15.4400,3.142
15.4800,3.133
15.5200,3.183
15.5600,3.199
15.6000,3.187
15.6400,3.076
15.6800,3.089
15.7200,3.079
15.7600,3.200
15.8000,3.079
15.8400,3.068
15.8800,3.216
15.9200,3.093
15.9600,3.059
16.0000,3.008
16.0400,3.179
16.0800,3.137
16.1200,3.078
16.1600,3.159
16.2000,3.155
16.2400,3.046
16.2800,3.049
16.3200,3.022
16.3600,3.248
16.4000,3.132
16.4400,3.097
16.4800,3.106
16.5200,3.132
16.5600,3.049
16.6000,3.066
16.6400,3.074
16.6800,3.126
16.7200,2.949
16.7600,3.036
16.8000,3.148
16.8400,3.093
16.8800,3.189
16.9200,3.054
16.9600,2.982
17.0000,2.998
17.0400,3.024
17.0800,3.034
17.1200,2.973
17.1600,3.018
17.2000,3.064
17.2400,3.062
17.2800,3.102
17.3200,3.121
17.3600,3.051
17.4000,2.999
17.4400,2.987
17.4800,2.917
17.5200,3.105
17.5600,3.030
17.6000,2.928
17.6400,2.995
17.6800,3.000
17.7200,3.013
17.7600,2.992
17.8000,3.090
17.8400,2.964
17.8800,2.947
17.9200,2.882
17.9600,2.981
18.0000,3.005
18.0400,2.903
18.0800,2.926
18.1200,2.927
18.1600,2.990
18.2000,2.913
18.2400,2.932
18.2800,2.943
18.3200,2.898
18.3600,2.819
18.4000,2.906
18.4400,2.810
18.4800,2.863
18.5200,2.927
18.5600,2.879
18.6000,2.763
18.6400,2.865
18.6800,2.858
18.7200,2.902
18.7600,2.865
18.8000,2.831
18.8400,2.954
18.8800,2.904
18.9200,2.874
18.9600,2.898
19.0000,2.921
19.0400,2.894
19.0800,2.856
19.1200,2.831
19.1600,2.753
19.2000,2.896
19.2400,2.863
19.2800,2.729
19.3200,2.832
19.3600,2.810
19.4000,2.701
19.4400,2.723
19.4800,2.814
19.5200,2.836
19.5600,2.767
19.6000,2.817
19.6400,2.829
19.6800,2.886
19.7200,2.880
19.7600,2.826
19.8000,2.698
19.8400,2.845
19.8800,2.705
19.9200,2.669
19.9600,2.791
20.0000,2.822
20.0400,2.817
20.0800,2.751
20.1200,2.693
20.1600,2.854
20.2000,2.744
20.2400,2.745
20.2800,2.695
20.3200,2.816
20.3600,2.725
20.4000,2.785
20.4400,2.742
20.4800,2.750
20.5200,2.654
20.5600,2.801
20.6000,2.790
20.6400,2.834
20.6800,2.707
20.7200,2.761
20.7600,2.645
20.8000,2.710
20.8400,2.748
20.8800,2.678
20.9200,2.701
20.9600,2.640
21.0000,2.579
21.0400,2.678
21.0800,2.697
21.1200,2.724
21.1600,2.582
21.2000,2.602
21.2400,2.669
21.2800,2.647
21.3200,2.618
21.3600,2.644
21.4000,2.666
21.4400,2.578
21.4800,2.678
21.5200,2.637
21.5600,2.589
21.6000,2.639
21.6400,2.733
21.6800,2.688
21.7200,2.666
21.7600,2.608
21.8000,2.621
21.8400,2.641
21.8800,2.645
21.9200,2.564
21.9600,2.528
22.0000,2.555
22.0400,2.602
22.0800,2.678
22.1200,2.681
22.1600,2.550
22.2000,2.523
22.2400,2.592
22.2800,2.606
22.3200,2.536
22.3600,2.477
22.4000,2.501
22.4400,2.691
22.4800,2.487
22.5200,2.604
22.5600,2.552
22.6000,2.497
22.6400,2.525
22.6800,2.590
22.7200,2.530
22.7600,2.509
22.8000,2.523
22.8400,2.507
22.8800,2.540
22.9200,2.614
22.9600,2.447
23.0000,2.569
23.0400,2.564
23.0800,2.500
23.1200,2.473
23.1600,2.537
23.2000,2.402
23.2400,2.507
23.2800,2.461
23.3200,2.524
23.3600,2.418
23.4000,2.496
23.4400,2.418
23.4800,2.461
23.5200,2.528
23.5600,2.421
23.6000,2.390
23.6400,2.381
23.6800,2.535
23.7200,2.365
23.7600,2.401
23.8000,2.412
23.8400,2.377
23.8800,2.358
23.9200,2.435
23.9600,2.382
24.0000,2.332
24.0400,2.384
24.0800,2.417
24.1200,2.351
24.1600,2.505
24.2000,2.407
24.2400,2.313
24.2800,2.348
24.3200,2.298
24.3600,2.307
24.4000,2.366
24.4400,2.279
24.4800,2.384
24.5200,2.431
24.5600,2.367
24.6000,2.343
24.6400,2.251
24.6800,2.347
24.7200,2.346
24.7600,2.276
24.8000,2.321
24.8400,2.278
24.8800,2.374
24.9200,2.314
24.9600,2.338
25.0000,2.235
25.0400,2.385
25.0800,2.367
25.1200,2.312
25.1600,2.349
25.2000,2.228
25.2400,2.311
25.2800,2.331
25.3200,2.228
25.3600,2.278
25.4000,2.349
25.4400,2.176
25.4800,2.301
25.5200,2.229
25.5600,2.292
25.6000,2.250
25.6400,2.260
25.6800,2.258
25.7200,2.188
25.7600,2.213
25.8000,2.255
25.8400,2.199
25.8800,2.175
25.9200,2.122
25.9600,2.226
26.0000,2.246
26.0400,2.177
26.0800,2.165
26.1200,2.141
26.1600,2.219
26.2000,2.245
26.2400,2.270
26.2800,2.184
26.3200,2.231
26.3600,2.210
26.4000,2.152
26.4400,2.172
26.4800,2.213
26.5200,2.162
26.5600,2.201
26.6000,2.207
26.6400,2.206
26.6800,2.139
26.7200,2.189
26.7600,2.188
26.8000,2.214
26.8400,2.183
26.8800,2.159
26.9200,2.128
26.9600,2.217
27.0000,2.087
27.0400,2.137
27.0800,2.230
27.1200,2.048
27.1600,2.148
27.2000,2.048
27.2400,2.085
27.2800,2.081
27.3200,2.196
27.3600,2.074
27.4000,2.048
27.4400,2.172
27.4800,2.110
27.5200,2.098
27.5600,2.144
27.6000,2.174
27.6400,2.147
27.6800,2.055
27.7200,2.124
27.7600,2.025
27.8000,2.072
27.8400,2.055
27.8800,2.063
27.9200,2.074
27.9600,2.007
28.0000,2.076
28.0400,2.008
28.0800,2.077
28.1200,2.103
28.1600,1.977
28.2000,2.057
28.2400,2.015
28.2800,2.015
28.3200,2.026
28.3600,2.111
28.4000,1.976
28.4400,1.954
28.4800,1.964
28.5200,1.968
28.5600,2.002
28.6000,1.978
28.6400,1.945
28.6800,1.945
28.7200,2.004
28.7600,1.952
28.8000,1.945
28.8400,1.972
28.8800,1.978
28.9200,1.970
28.9600,1.953
29.0000,1.991
29.0400,2.005
29.0800,2.000
29.1200,2.072
29.1600,2.055
29.2000,1.890
29.2400,1.971
29.2800,1.866
29.3200,1.829
29.3600,1.950
29.4000,2.035
29.4400,1.983
29.4800,1.889
29.5200,1.909
29.5600,1.889
29.6000,1.893
29.6400,1.907
29.6800,1.848
29.7200,1.915
29.7600,1.908
29.8000,1.888
29.8400,1.914
29.8800,1.959
29.9200,1.892
29.9600,1.896
30.0000,1.897
30.0400,1.847
30.0800,1.887
30.1200,1.932
30.1600,1.937
30.2000,1.906
30.2400,1.898
30.2800,1.898
30.3200,1.830
30.3600,1.870
30.4000,1.906
30.4400,1.957
30.4800,1.909
30.5200,1.954
30.5600,1.935
30.6000,1.862
30.6400,1.907
30.6800,1.807
30.7200,1.830
30.7600,1.916
30.8000,1.938
30.8400,1.834
30.8800,1.868
30.9200,1.946
30.9600,1.796
31.0000,1.869
31.0400,1.816
31.0800,1.804
31.1200,1.848
31.1600,1.848
31.2000,1.807
31.2400,1.899
31.2800,1.790
31.3200,1.792
31.3600,1.829
31.4000,1.883
31.4400,1.710
31.4800,1.886
31.5200,1.750
31.5600,1.822
31.6000,1.800
31.6400,1.802
31.6800,1.901
31.7200,1.911
31.7600,1.854
31.8000,1.828
31.8400,1.799
31.8800,1.743
31.9200,1.747
31.9600,1.819
32.0000,1.761
32.0400,1.837
32.0800,1.746
32.1200,1.725
32.1600,1.834
32.2000,1.741
32.2400,1.789
32.2800,1.736
32.3200,1.780
32.3600,1.728
32.4000,1.759
32.4400,1.790
32.4800,1.787
32.5200,1.881
32.5600,1.768
32.6000,1.688
32.6400,1.730
32.6800,1.781
32.7200,1.760
32.7600,1.762
32.8000,1.716
32.8400,1.668
32.8800,1.686
32.9200,1.722
32.9600,1.689
33.0000,1.742
33.0400,1.668
33.0800,1.714
33.1200,1.745
33.1600,1.635
33.2000,1.779
33.2400,1.685
33.2800,1.750
33.3200,1.681
33.3600,1.668
33.4000,1.750
33.4400,1.698
33.4800,1.621
33.5200,1.675
33.5600,1.730
33.6000,1.650
33.6400,1.691
33.6800,1.759
33.7200,1.670
33.7600,1.678
33.8000,1.676
33.8400,1.668
33.8800,1.673
33.9200,1.658
33.9600,1.697
34.0000,1.700
34.0400,1.675
34.0800,1.699
34.1200,1.720
34.1600,1.668
34.2000,1.665
34.2400,1.685
34.2800,1.654
34.3200,1.723
34.3600,1.626
34.4000,1.572
34.4400,1.643
34.4800,1.671
34.5200,1.684
34.5600,1.598
34.6000,1.637
34.6400,1.725
34.6800,1.697
34.7200,1.711
34.7600,1.632
34.8000,1.692
34.8400,1.768
34.8800,1.709
34.9200,1.653
34.9600,1.659
35.0000,1.680
35.0400,1.637
35.0800,1.648
35.1200,1.644
35.1600,1.635
35.2000,1.630
35.2400,1.634
35.2800,1.693
35.3200,1.692
35.3600,1.640
35.4000,1.602
35.4400,1.661
35.4800,1.710
35.5200,1.719
35.5600,1.654
35.6000,1.614
35.6400,1.672
35.6800,1.778
35.7200,1.711
35.7600,1.708
35.8000,1.706
35.8400,1.698
35.8800,1.675
35.9200,1.723
35.9600,1.820
36.0000,1.783
36.0400,1.738
36.0800,1.720
36.1200,1.815
36.1600,1.796
36.2000,1.778
36.2400,1.808
36.2800,1.828
36.3200,1.789
36.3600,1.848
36.4000,1.833
36.4400,1.846
36.4800,1.776
36.5200,1.751
36.5600,1.825
36.6000,1.866
36.6400,1.868
36.6800,1.830
36.7200,1.814
36.7600,1.860
36.8000,1.959
36.8400,1.821
36.8800,1.859
36.9200,1.915
36.9600,1.967
37.0000,1.982
37.0400,1.911
37.0800,1.918
37.1200,2.046
37.1600,2.089
37.2000,1.977
37.2400,2.111
37.2800,2.057
37.3200,2.155
37.3600,2.327
37.4000,2.293
37.4400,2.343
37.4800,2.413
37.5200,2.546
37.5600,2.682
37.6000,2.679
37.6400,2.842
37.6800,3.059
37.7200,3.222
37.7600,3.468
37.8000,3.615
37.8400,3.997
37.8800,4.470
37.9200,4.860
37.9600,5.502
38.0000,6.191
38.0400,7.168
38.0800,8.479
38.1200,10.086
38.1600,11.723
38.2000,13.854
38.2400,15.365
38.2800,16.091
38.3200,15.798
38.3600,14.737
38.4000,13.220
38.4400,11.495
38.4800,9.834
38.5200,8.290
38.5600,7.140
38.6000,6.342
38.6400,5.464
38.6800,4.845
38.7200,4.465
38.7600,4.036
38.8000,3.750
38.8400,3.426
38.8800,3.185
38.9200,3.039
38.9600,2.950
39.0000,2.798
39.0400,2.612
39.0800,2.518
39.1200,2.550
39.1600,2.378
39.2000,2.318
39.2400,2.181
39.2800,2.101
39.3200,2.065
39.3600,1.997
39.4000,2.026
39.4400,1.904
39.4800,1.955
39.5200,2.003
39.5600,1.915
39.6000,1.890
39.6400,1.891
39.6800,1.851
39.7200,1.793
39.7600,1.823
39.8000,1.799
39.8400,1.717
39.8800,1.785
39.9200,1.730
39.9600,1.761
40.0000,1.706
40.0400,1.692
40.0800,1.649
40.1200,1.710
40.1600,1.661
40.2000,1.637
40.2400,1.705
40.2800,1.634
40.3200,1.581
40.3600,1.590
40.4000,1.657
40.4400,1.642
40.4800,1.628
40.5200,1.572
40.5600,1.600
40.6000,1.643
40.6400,1.556
40.6800,1.571
40.7200,1.614
40.7600,1.590
40.8000,1.640
40.8400,1.537
40.8800,1.614
40.9200,1.616
40.9600,1.529
41.0000,1.510
41.0400,1.672
41.0800,1.537
41.1200,1.553
41.1600,1.546
41.2000,1.513
41.2400,1.520
41.2800,1.593
41.3200,1.530
41.3600,1.480
41.4000,1.503
41.4400,1.500
41.4800,1.441
41.5200,1.424
41.5600,1.443
41.6000,1.365
41.6400,1.516
41.6800,1.487
41.7200,1.461
41.7600,1.428
41.8000,1.395
41.8400,1.430
41.8800,1.428
41.9200,1.351
41.9600,1.389
42.0000,1.453
42.0400,1.434
42.0800,1.444
42.1200,1.427
42.1600,1.401
42.2000,1.367
42.2400,1.415
42.2800,1.419
42.3200,1.411
42.3600,1.407
42.4000,1.398
42.4400,1.373
42.4800,1.388
42.5200,1.415
42.5600,1.379
42.6000,1.402
42.6400,1.421
42.6800,1.371
42.7200,1.414
42.7600,1.412
42.8000,1.413
42.8400,1.416
42.8800,1.387
42.9200,1.412
42.9600,1.522
43.0000,1.502
43.0400,1.421
43.0800,1.463
43.1200,1.521
43.1600,1.457
43.2000,1.464
43.2400,1.480
43.2800,1.588
43.3200,1.609
43.3600,1.579
43.4000,1.595
43.4400,1.579
43.4800,1.739
43.5200,1.598
43.5600,1.595
43.6000,1.663
43.6400,1.651
43.6800,1.737
43.7200,1.769
43.7600,1.850
43.8000,1.888
43.8400,1.985
43.8800,1.975
43.9200,2.156
43.9600,2.072
44.0000,2.152
44.0400,2.359
44.0800,2.499
44.1200,2.594
44.1600,2.650
44.2000,2.934
44.2400,3.071
44.2800,3.171
44.3200,3.293
44.3600,3.659
44.4000,3.747
44.4400,3.968
44.4800,4.114
44.5200,4.091
44.5600,4.144
44.6000,3.996
44.6400,3.843
44.6800,3.762
44.7200,3.577
44.7600,3.317
44.8000,3.089
44.8400,2.904
44.8800,2.745
44.9200,2.448
44.9600,2.391
45.0000,2.228
45.0400,2.135
45.0800,2.040
45.1200,1.896
45.1600,1.790
45.2000,1.784
45.2400,1.690
45.2800,1.682
45.3200,1.621
45.3600,1.503
45.4000,1.429
45.4400,1.456
45.4800,1.425
45.5200,1.392
45.5600,1.427
45.6000,1.342
45.6400,1.331
45.6800,1.233
45.7200,1.291
45.7600,1.311
45.8000,1.234
45.8400,1.269
45.8800,1.252
45.9200,1.234
45.9600,1.162
46.0000,1.154
46.0400,1.078
46.0800,1.136
46.1200,1.109
46.1600,1.157
46.2000,1.059
46.2400,1.093
46.2800,1.085
46.3200,1.084
46.3600,1.202
46.4000,1.041
46.4400,1.034
46.4800,1.069
46.5200,1.054
46.5600,1.058
46.6000,1.014
46.6400,1.045
46.6800,1.039
46.7200,1.041
46.7600,1.062
46.8000,0.968
46.8400,0.971
46.8800,0.995
46.9200,1.037
46.9600,0.993
47.0000,0.997
47.0400,1.011
47.0800,1.035
47.1200,0.998
47.1600,0.985
47.2000,1.017
47.2400,0.960
47.2800,0.946
47.3200,1.029
47.3600,0.984
47.4000,0.919
47.4400,0.939
47.4800,0.962
47.5200,0.970
47.5600,0.920
47.6000,0.895
47.6400,0.980
47.6800,0.960
47.7200,0.935
47.7600,0.996
47.8000,0.941
47.8400,0.936
47.8800,0.939
47.9200,0.931
47.9600,0.944
48.0000,0.912
48.0400,0.922
48.0800,0.933
48.1200,0.937
48.1600,0.953
48.2000,0.941
48.2400,0.985
48.2800,0.913
48.3200,0.902
48.3600,0.887
48.4000,0.909
48.4400,0.885
48.4800,0.851
48.5200,0.946
48.5600,0.887
48.6000,0.893
48.6400,0.895
48.6800,0.869
48.7200,0.881
48.7600,0.870
48.8000,0.887
48.8400,0.860
48.8800,0.866
48.9200,0.870
48.9600,0.903
49.0000,0.834
49.0400,0.840
49.0800,0.864
49.1200,0.878
49.1600,0.858
49.2000,0.874
49.2400,0.815
49.2800,0.900
49.3200,0.879
49.3600,0.877
49.4000,0.854
49.4400,0.886
49.4800,0.853
49.5200,0.887
49.5600,0.865
49.6000,0.831
49.6400,0.887
49.6800,0.822
49.7200,0.817
49.7600,0.838
49.8000,0.850
49.8400,0.824
49.8800,0.843
49.9200,0.817
49.9600,0.872
50.0000,0.855
50.0400,0.815
50.0800,0.857
50.1200,0.879
50.1600,0.842
50.2000,0.817
50.2400,0.777
50.2800,0.845
50.3200,0.788
50.3600,0.813
50.4000,0.819
50.4400,0.770
50.4800,0.823
50.5200,0.828
50.5600,0.808
50.6000,0.834
50.6400,0.789
50.6800,0.794
50.7200,0.825
50.7600,0.799
50.8000,0.811
50.8400,0.862
50.8800,0.813
50.9200,0.847
50.9600,0.782
51.0000,0.748
51.0400,0.805
51.0800,0.782
51.1200,0.778
51.1600,0.750
51.2000,0.796
51.2400,0.772
51.2800,0.792
51.3200,0.740
51.3600,0.785
51.4000,0.800
51.4400,0.786
51.4800,0.812
51.5200,0.802
51.5600,0.787
51.6000,0.808
51.6400,0.780
51.6800,0.758
51.7200,0.758
51.7600,0.744
51.8000,0.781
51.8400,0.789
51.8800,0.787
51.9200,0.789
51.9600,0.785
52.0000,0.784
52.0400,0.767
52.0800,0.783
52.1200,0.713
52.1600,0.755
52.2000,0.765
52.2400,0.780
52.2800,0.753
52.3200,0.796
52.3600,0.778
52.4000,0.797
52.4400,0.726
52.4800,0.724
52.5200,0.736
52.5600,0.732
52.6000,0.762
52.6400,0.732
52.6800,0.807
52.7200,0.767
52.7600,0.751
52.8000,0.746
52.8400,0.791
52.8800,0.724
52.9200,0.721
52.9600,0.719
53.0000,0.771
53.0400,0.772
53.0800,0.673
53.1200,0.748
53.1600,0.749
53.2000,0.789
53.2400,0.757
53.2800,0.771
53.3200,0.695
53.3600,0.737
53.4000,0.757
53.4400,0.740
53.4800,0.723
53.5200,0.691
53.5600,0.727
53.6000,0.705
53.6400,0.751
53.6800,0.742
53.7200,0.715
53.7600,0.673
53.8000,0.725
53.8400,0.726
53.8800,0.706
53.9200,0.734
53.9600,0.722
54.0000,0.707
54.0400,0.690
54.0800,0.730
54.1200,0.693
54.1600,0.695
54.2000,0.719
54.2400,0.733
54.2800,0.713
54.3200,0.789
54.3600,0.726
54.4000,0.711
54.4400,0.686
54.4800,0.691
54.5200,0.706
54.5600,0.743
54.6000,0.719
54.6400,0.731
54.6800,0.695
54.7200,0.691
54.7600,0.714
54.8000,0.717
54.8400,0.678
54.8800,0.722
54.9200,0.665
54.9600,0.715
55.0000,0.684
55.0400,0.702
55.0800,0.659
55.1200,0.688
55.1600,0.732
55.2000,0.728
55.2400,0.697
55.2800,0.703
55.3200,0.683
55.3600,0.676
55.4000,0.722
55.4400,0.726
55.4800,0.689
55.5200,0.748
55.5600,0.697
55.6000,0.674
55.6400,0.718
55.6800,0.689
55.7200,0.709
55.7600,0.752
55.8000,0.711
55.8400,0.729
55.8800,0.680
55.9200,0.706
55.9600,0.664
56.0000,0.733
56.0400,0.702
56.0800,0.679
56.1200,0.711
56.1600,0.705
56.2000,0.683
56.2400,0.679
56.2800,0.710
56.3200,0.716
56.3600,0.717
56.4000,0.699
56.4400,0.661
56.4800,0.701
56.5200,0.699
56.5600,0.691
56.6000,0.723
56.6400,0.731
56.6800,0.719
56.7200,0.634
56.7600,0.705
56.8000,0.676
56.8400,0.664
56.8800,0.677
56.9200,0.703
56.9600,0.619
57.0000,0.651
57.0400,0.639
57.0800,0.661
57.1200,0.687
57.1600,0.631
57.2000,0.625
57.2400,0.668
57.2800,0.618
57.3200,0.667
57.3600,0.629
57.4000,0.641
57.4400,0.631
57.4800,0.645
57.5200,0.636
57.5600,0.655
57.6000,0.681
57.6400,0.672
57.6800,0.658
57.7200,0.650
57.7600,0.648
57.8000,0.664
57.8400,0.628
57.8800,0.656
57.9200,0.667
57.9600,0.666
58.0000,0.676
58.0400,0.696
58.0800,0.654
58.1200,0.640
58.1600,0.629
58.2000,0.654
58.2400,0.681
58.2800,0.647
58.3200,0.651
58.3600,0.654
58.4000,0.666
58.4400,0.664
58.4800,0.687
58.5200,0.649
58.5600,0.619
58.6000,0.602
58.6400,0.643
58.6800,0.582
58.7200,0.634
58.7600,0.642
58.8000,0.683
58.8400,0.615
58.8800,0.638
58.9200,0.577
58.9600,0.665
59.0000,0.677
59.0400,0.639
59.0800,0.647
59.1200,0.621
59.1600,0.620
59.2000,0.601
59.2400,0.639
59.2800,0.605
59.3200,0.601
59.3600,0.589
59.4000,0.592
59.4400,0.578
59.4800,0.606
59.5200,0.587
59.5600,0.620
59.6000,0.635
59.6400,0.605
59.6800,0.601
59.7200,0.636
59.7600,0.593
59.8000,0.646
59.8400,0.645
59.8800,0.632
59.9200,0.615
59.9600,0.623
60.0000,0.605
60.0400,0.578
60.0800,0.601
60.1200,0.613
60.1600,0.628
60.2000,0.601
60.2400,0.624
60.2800,0.596
60.3200,0.571
60.3600,0.596
60.4000,0.613
60.4400,0.584
60.4800,0.542
60.5200,0.567
60.5600,0.593
60.6000,0.597
60.6400,0.589
60.6800,0.556
60.7200,0.596
60.7600,0.629
60.8000,0.589
60.8400,0.614
60.8800,0.602
60.9200,0.608
60.9600,0.581
61.0000,0.595
61.0400,0.597
61.0800,0.607
61.1200,0.623
61.1600,0.587
61.2000,0.610
61.2400,0.601
61.2800,0.623
61.3200,0.581
61.3600,0.584
61.4000,0.572
61.4400,0.615
61.4800,0.591
61.5200,0.592
61.5600,0.618
61.6000,0.622
61.6400,0.622
61.6800,0.667
61.7200,0.712
61.7600,0.661
61.8000,0.675
61.8400,0.611
61.8800,0.618
61.9200,0.649
61.9600,0.565
62.0000,0.526
62.0400,0.588
62.0800,0.598
62.1200,0.568
62.1600,0.596
62.2000,0.575
62.2400,0.602
62.2800,0.594
62.3200,0.629
62.3600,0.586
62.4000,0.627
62.4400,0.613
62.4800,0.616
62.5200,0.604
62.5600,0.610
62.6000,0.599
62.6400,0.612
62.6800,0.608
62.7200,0.641
62.7600,0.660
62.8000,0.631
62.8400,0.629
62.8800,0.618
62.9200,0.654
62.9600,0.684
63.0000,0.614
63.0400,0.626
63.0800,0.623
63.1200,0.628
63.1600,0.644
63.2000,0.666
63.2400,0.675
63.2800,0.674
63.3200,0.660
63.3600,0.701
63.4000,0.669
63.4400,0.650
63.4800,0.670
63.5200,0.700
63.5600,0.714
63.6000,0.648
63.6400,0.708
63.6800,0.736
63.7200,0.751
63.7600,0.744
63.8000,0.784
63.8400,0.734
63.8800,0.814
63.9200,0.841
63.9600,0.843
64.0000,0.824
64.0400,0.849
64.0800,0.937
64.1200,0.995
64.1600,0.960
64.2000,1.060
64.2400,1.056
64.2800,1.090
64.3200,1.242
64.3600,1.254
64.4000,1.372
64.4400,1.453
64.4800,1.706
64.5200,1.791
64.5600,1.923
64.6000,2.087
64.6400,2.268
64.6800,2.425
64.7200,2.444
64.7600,2.450
64.8000,2.477
64.8400,2.475
64.8800,2.240
64.9200,2.188
64.9600,2.103
65.0000,1.905
65.0400,1.814
65.0800,1.670
65.1200,1.523
65.1600,1.443
65.2000,1.350
65.2400,1.234
65.2800,1.225
65.3200,1.117
65.3600,1.116
65.4000,1.108
65.4400,1.015
65.4800,0.985
65.5200,0.923
65.5600,0.976
65.6000,0.896
65.6400,0.941
65.6800,0.891
65.7200,0.886
65.7600,0.813
65.8000,0.869
65.8400,0.826
65.8800,0.837
65.9200,0.834
65.9600,0.798
66.0000,0.842
66.0400,0.795
66.0800,0.836
66.1200,0.779
66.1600,0.813
66.2000,0.799
66.2400,0.801
66.2800,0.827
66.3200,0.847
66.3600,0.858
66.4000,0.806
66.4400,0.834
66.4800,0.848
66.5200,0.813
66.5600,0.835
66.6000,0.877
66.6400,0.859
66.6800,0.860
66.7200,0.817
66.7600,0.890
66.8000,0.875
66.8400,0.878
66.8800,0.956
66.9200,0.880
66.9600,0.940
67.0000,0.952
67.0400,0.910
67.0800,0.938
67.1200,1.015
67.1600,1.024
67.2000,0.961
67.2400,0.962
67.2800,1.031
67.3200,1.046
67.3600,1.043
67.4000,1.042
67.4400,1.085
67.4800,1.088
67.5200,1.139
67.5600,1.114
67.6000,1.139
67.6400,1.146
67.6800,1.161
67.7200,1.166
67.7600,1.239
67.8000,1.291
67.8400,1.318
67.8800,1.345
67.9200,1.373
67.9600,1.399
68.0000,1.375
68.0400,1.397
68.0800,1.465
68.1200,1.498
68.1600,1.510
68.2000,1.559
68.2400,1.620
68.2800,1.724
68.3200,1.667
68.3600,1.696
68.4000,1.884
68.4400,1.875
68.4800,1.945
68.5200,2.048
68.5600,2.205
68.6000,2.327
68.6400,2.330
68.6800,2.531
68.7200,3.154
68.7600,3.711
68.8000,4.812
68.8400,5.758
68.8800,6.030
68.9200,6.398
68.9600,7.252
69.0000,9.396
69.0400,15.099
69.0800,30.552
69.1200,111.522
69.1600,347.174
69.2000,346.561
69.2400,116.917
69.2800,42.770
69.3200,76.383
69.3600,184.610
69.4000,172.274
69.4400,57.956
69.4800,17.743
69.5200,9.971
69.5600,7.170
69.6000,5.659
69.6400,4.703
69.6800,4.242
69.7200,3.602
69.7600,3.255
69.8000,2.965
69.8400,2.721
69.8800,2.496
69.9200,2.398
69.9600,2.296
70.0000,2.109
70.0400,2.081
70.0800,2.093
70.1200,1.957
70.1600,1.859
70.2000,1.745
70.2400,1.849
70.2800,1.783
70.3200,1.594
70.3600,1.595
70.4000,1.563
70.4400,1.490
70.4800,1.492
70.5200,1.403
70.5600,1.412
70.6000,1.413
70.6400,1.298
70.6800,1.211
70.7200,1.252
70.7600,1.198
70.8000,1.194
70.8400,1.207
70.8800,1.138
70.9200,1.132
70.9600,1.055
71.0000,0.993
71.0400,1.013
71.0800,1.011
71.1200,0.960
71.1600,0.991
71.2000,0.973
71.2400,0.900
71.2800,0.952
71.3200,0.986
71.3600,0.932
71.4000,0.882
71.4400,0.789
71.4800,0.793
71.5200,0.854
71.5600,0.845
71.6000,0.747
71.6400,0.718
71.6800,0.749
71.7200,0.803
71.7600,0.773
71.8000,0.720
71.8400,0.739
71.8800,0.739
71.9200,0.728
71.9600,0.672
72.0000,0.693
72.0400,0.683
72.0800,0.716
72.1200,0.668
72.1600,0.589
72.2000,0.616
72.2400,0.639
72.2800,0.639
72.3200,0.564
72.3600,0.578
72.4000,0.634
72.4400,0.599
72.4800,0.572
72.5200,0.570
72.5600,0.605
72.6000,0.578
72.6400,0.628
72.6800,0.590
72.7200,0.582
72.7600,0.531
72.8000,0.541
72.8400,0.536
72.8800,0.537
72.9200,0.545
72.9600,0.519
73.0000,0.563
73.0400,0.513
73.0800,0.538
73.1200,0.508
73.1600,0.545
73.2000,0.501
73.2400,0.572
73.2800,0.489
73.3200,0.489
73.3600,0.502
73.4000,0.508
73.4400,0.501
73.4800,0.524
73.5200,0.513
73.5600,0.512
73.6000,0.496
73.6400,0.488
73.6800,0.498
73.7200,0.483
73.7600,0.461
73.8000,0.467
73.8400,0.494
73.8800,0.474
73.9200,0.459
73.9600,0.435
74.0000,0.474
74.0400,0.466
74.0800,0.443
74.1200,0.453
74.1600,0.433
74.2000,0.467
74.2400,0.503
74.2800,0.458
74.3200,0.457
74.3600,0.450
74.4000,0.452
74.4400,0.433
74.4800,0.453
74.5200,0.457
74.5600,0.441
74.6000,0.442
74.6400,0.423
74.6800,0.419
74.7200,0.436
74.7600,0.453
74.8000,0.434
74.8400,0.400
74.8800,0.418
74.9200,0.431
74.9600,0.442
75.0000,0.464
75.0400,0.413
75.0800,0.417
75.1200,0.457
75.1600,0.466
75.2000,0.447
75.2400,0.396
75.2800,0.450
75.3200,0.432
75.3600,0.472
75.4000,0.476
75.4400,0.397
75.4800,0.450
75.5200,0.416
75.5600,0.459
75.6000,0.427
75.6400,0.428
75.6800,0.484
75.7200,0.461
75.7600,0.419
75.8000,0.384
75.8400,0.442
75.8800,0.418
75.9200,0.475
75.9600,0.451
76.0000,0.443
76.0400,0.457
76.0800,0.438
76.1200,0.430
76.1600,0.483
76.2000,0.492
76.2400,0.496
76.2800,0.469
76.3200,0.475
76.3600,0.505
76.4000,0.511
76.4400,0.466
76.4800,0.513
76.5200,0.492
76.5600,0.542
76.6000,0.537
76.6400,0.526
76.6800,0.576
76.7200,0.541
76.7600,0.565
76.8000,0.584
76.8400,0.650
76.8800,0.604
76.9200,0.642
76.9600,0.675
77.0000,0.636
77.0400,0.726
77.0800,0.736
77.1200,0.750
77.1600,0.788
77.2000,0.822
77.2400,0.862
77.2800,0.960
77.3200,1.047
77.3600,1.046
77.4000,1.151
77.4400,1.248
77.4800,1.356
77.5200,1.441
77.5600,1.534
77.6000,1.650
77.6400,1.812
77.6800,1.775
77.7200,1.979
77.7600,1.979
77.8000,1.982
77.8400,1.908
77.8800,1.837
77.9200,1.817
77.9600,1.804
78.0000,1.688
78.0400,1.498
78.0800,1.349
78.1200,1.326
78.1600,1.256
78.2000,1.115
78.2400,1.093
78.2800,0.953
78.3200,0.895
78.3600,0.881
78.4000,0.763
78.4400,0.756
78.4800,0.717
78.5200,0.716
78.5600,0.649
78.6000,0.633
78.6400,0.662
78.6800,0.638
78.7200,0.580
78.7600,0.563
78.8000,0.583
78.8400,0.521
78.8800,0.537
78.9200,0.503
78.9600,0.490
79.0000,0.492
79.0400,0.499
79.0800,0.481
79.1200,0.455
79.1600,0.489
79.2000,0.498
79.2400,0.469
79.2800,0.463
79.3200,0.443
79.3600,0.442
79.4000,0.459
79.4400,0.415
79.4800,0.436
79.5200,0.442
79.5600,0.415
79.6000,0.405
79.6400,0.417
79.6800,0.412
79.7200,0.432
79.7600,0.417
79.8000,0.422
79.8400,0.391
79.8800,0.397
79.9200,0.403
79.9600,0.396
80.0000,0.410
