theta,intensity
5.0000,5.253
5.0400,5.294
5.0800,5.331
5.1200,5.337
5.1600,5.285
5.2000,5.262
5.2400,5.104
5.2800,5.156
5.3200,5.096
5.3600,5.271
5.4000,5.184
5.4400,4.986
5.4800,4.992
5.5200,5.074
5.5600,4.933
5.6000,4.987
5.6400,4.845
5.6800,4.866
5.7200,4.821
5.7600,4.693
5.8000,4.693
5.8400,4.657
5.8800,4.636
5.9200,4.568
5.9600,4.363
6.0000,4.507
6.0400,4.451
6.0800,4.373
6.1200,4.377
6.1600,4.274
6.2000,4.184
6.2400,4.184
6.2800,4.296
6.3200,4.216
6.3600,4.229
6.4000,4.160
6.4400,4.099
6.4800,4.169
6.5200,4.236
6.5600,4.172
6.6000,4.271
6.6400,4.122
6.6800,4.159
6.7200,4.018
6.7600,4.049
6.8000,4.168
6.8400,4.168
6.8800,4.133
6.9200,4.047
6.9600,4.158
7.0000,4.030
7.0400,3.973
7.0800,4.057
7.1200,4.080
7.1600,4.032
7.2000,4.163
7.2400,4.127
7.2800,4.079
7.3200,3.913
7.3600,4.003
7.4000,3.995
7.4400,4.071
7.4800,3.942
7.5200,3.947
7.5600,3.989
7.6000,3.943
7.6400,3.894
7.6800,3.985
7.7200,3.983
7.7600,4.013
7.8000,3.951
7.8400,3.929
7.8800,3.913
7.9200,3.949
7.9600,4.016
8.0000,3.923
8.0400,3.845
8.0800,3.938
8.1200,3.929
8.1600,3.922
8.2000,3.925
8.2400,3.831
8.2800,3.865
8.3200,3.913
8.3600,3.939
8.4000,3.898
8.4400,3.791
8.4800,3.990
8.5200,3.841
8.5600,3.934
8.6000,3.881
8.6400,3.879
8.6800,3.914
8.7200,3.765
8.7600,3.802
8.8000,3.861
8.8400,3.834
8.8800,3.822
8.9200,3.781
8.9600,3.782
9.0000,3.819
9.0400,3.842
9.0800,3.913
9.1200,3.702
9.1600,3.856
9.2000,3.726
9.2400,3.822
9.2800,3.865
9.3200,3.675
9.3600,3.660
9.4000,3.676
9.4400,3.818
9.4800,3.685
9.5200,3.727
9.5600,3.724
9.6000,3.850
9.6400,3.792
9.6800,3.779
9.7200,3.759
9.7600,3.698
9.8000,3.625
9.8400,3.700
9.8800,3.679
9.9200,3.730
9.9600,3.599
10.0000,3.672
10.0400,3.632
10.0800,3.637
10.1200,3.587
10.1600,3.735
10.2000,3.758
10.2400,3.673
10.2800,3.646
10.3200,3.618
10.3600,3.605
10.4000,3.627
10.4400,3.705
10.4800,3.642
10.5200,3.630
10.5600,3.685
10.6000,3.599
10.6400,3.581
10.6800,3.587
10.7200,3.594
10.7600,3.648
10.8000,3.623
10.8400,3.568
10.8800,3.522
10.9200,3.616
10.9600,3.650
11.0000,3.670
11.0400,3.642
11.0800,3.626
11.1200,3.535
11.1600,3.675
11.2000,3.618
11.2400,3.636
11.2800,3.621
11.3200,3.723
11.3600,3.448
11.4000,3.693
11.4400,3.573
11.4800,3.595
11.5200,3.491
11.5600,3.373
11.6000,3.510
11.6400,3.487
11.6800,3.376
11.7200,3.564
11.7600,3.502
11.8000,3.495
11.8400,3.495
11.8800,3.500
11.9200,3.503
11.9600,3.428
12.0000,3.455
12.0400,3.501
12.0800,3.517
12.1200,3.441
12.1600,3.565
12.2000,3.540
12.2400,3.447
12.2800,3.386
12.3200,3.455
12.3600,3.484
12.4000,3.489
12.4400,3.408
12.4800,3.409
12.5200,3.421
12.5600,3.315
12.6000,3.376
12.6400,3.406
12.6800,3.469
12.7200,3.434
12.7600,3.359
12.8000,3.411
12.8400,3.373
12.8800,3.401
12.9200,3.384
12.9600,3.427
13.0000,3.419
13.0400,3.335
13.0800,3.352
13.1200,3.427
13.1600,3.396
13.2000,3.334
13.2400,3.397
13.2800,3.398
13.3200,3.386
13.3600,3.431
13.4000,3.358
13.4400,3.336
13.4800,3.352
13.5200,3.381
13.5600,3.247
13.6000,3.367
13.6400,3.444
13.6800,3.247
13.7200,3.377
13.7600,3.296
13.8000,3.271
13.8400,3.274
13.8800,3.290
13.9200,3.275
13.9600,3.300
14.0000,3.251
14.0400,3.311
14.0800,3.251
14.1200,3.272
14.1600,3.285
14.2000,3.279
14.2400,3.173
14.2800,3.241
14.3200,3.233
14.3600,3.254
14.4000,3.293
14.4400,3.268
14.4800,3.281
14.5200,3.307
14.5600,3.078
14.6000,3.275
14.6400,3.357
14.6800,3.154
14.7200,3.112
14.7600,3.225
14.8000,3.168
14.8400,3.163
14.8800,3.211
14.9200,3.200
14.9600,3.274
15.0000,3.197
15.0400,3.046
15.0800,3.240
15.1200,3.095
15.1600,3.056
15.2000,3.239
15.2400,3.138
15.2800,3.175
15.3200,3.136
15.3600,3.176
15.4000,3.132
15.4400,3.215
15.4800,3.261
15.5200,3.146
15.5600,3.117
15.6000,3.215
15.6400,3.167
15.6800,3.116
15.7200,3.070
15.7600,3.048
15.8000,3.151
15.8400,3.085
15.8800,3.183
15.9200,3.090
15.9600,3.048
16.0000,3.175
16.0400,3.112
16.0800,3.143
16.1200,3.082
16.1600,3.069
16.2000,3.069
16.2400,3.067
16.2800,3.089
16.3200,3.063
16.3600,3.037
16.4000,2.980
16.4400,3.013
16.4800,3.067
16.5200,3.128
16.5600,3.013
16.6000,3.076
16.6400,2.921
16.6800,3.119
16.7200,3.061
16.7600,3.054
16.8000,2.989
16.8400,3.002
16.8800,3.062
16.9200,2.960
16.9600,2.948
17.0000,3.057
17.0400,2.971
17.0800,3.067
17.1200,3.018
17.1600,2.917
17.2000,3.007
17.2400,2.998
17.2800,2.916
17.3200,3.053
17.3600,2.969
17.4000,2.964
17.4400,2.944
17.4800,3.036
17.5200,2.997
17.5600,2.962
17.6000,2.932
17.6400,2.906
17.6800,2.969
17.7200,2.967
17.7600,2.859
17.8000,3.035
17.8400,2.924
17.8800,2.966
17.9200,2.971
17.9600,3.032
18.0000,2.862
18.0400,2.889
18.0800,2.903
18.1200,2.938
18.1600,2.897
18.2000,2.908
18.2400,2.890
18.2800,2.861
18.3200,2.924
18.3600,2.854
18.4000,2.865
18.4400,2.893
18.4800,2.812
18.5200,2.859
18.5600,2.849
18.6000,2.865
18.6400,2.723
18.6800,2.807
18.7200,2.919
18.7600,2.857
18.8000,2.792
18.8400,2.858
18.8800,2.780
18.9200,2.922
18.9600,2.944
19.0000,2.864
19.0400,2.820
19.0800,2.841
19.1200,2.805
19.1600,2.760
19.2000,2.829
19.2400,2.789
19.2800,2.835
19.3200,2.811
19.3600,2.807
19.4000,2.773
19.4400,2.833
19.4800,2.833
19.5200,2.779
19.5600,2.797
19.6000,2.804
19.6400,2.734
19.6800,2.800
19.7200,2.687
19.7600,2.811
19.8000,2.658
19.8400,2.749
19.8800,2.779
19.9200,2.711
19.9600,2.727
20.0000,2.712
20.0400,2.683
20.0800,2.721
20.1200,2.634
20.1600,2.770
20.2000,2.704
20.2400,2.661
20.2800,2.692
20.3200,2.629
20.3600,2.774
20.4000,2.670
20.4400,2.692
20.4800,2.627
20.5200,2.594
20.5600,2.675
20.6000,2.702
20.6400,2.656
20.6800,2.647
20.7200,2.654
20.7600,2.602
20.8000,2.708
20.8400,2.602
20.8800,2.645
20.9200,2.689
20.9600,2.581
21.0000,2.597
21.0400,2.744
21.0800,2.621
21.1200,2.585
21.1600,2.716
21.2000,2.686
21.2400,2.612
21.2800,2.651
21.3200,2.588
21.3600,2.589
21.4000,2.594
21.4400,2.629
21.4800,2.524
21.5200,2.534
21.5600,2.604
21.6000,2.587
21.6400,2.613
21.6800,2.611
21.7200,2.649
21.7600,2.564
21.8000,2.616
21.8400,2.570
21.8800,2.619
21.9200,2.593
21.9600,2.523
22.0000,2.598
22.0400,2.545
22.0800,2.599
22.1200,2.462
22.1600,2.514
22.2000,2.541
22.2400,2.532
22.2800,2.525
22.3200,2.539
22.3600,2.473
22.4000,2.479
22.4400,2.511
22.4800,2.523
22.5200,2.435
22.5600,2.449
22.6000,2.461
22.6400,2.495
22.6800,2.516
22.7200,2.475
22.7600,2.425
22.8000,2.493
22.8400,2.478
22.8800,2.471
22.9200,2.458
22.9600,2.482
23.0000,2.517
23.0400,2.467
23.0800,2.449
23.1200,2.418
23.1600,2.464
23.2000,2.417
23.2400,2.417
23.2800,2.516
23.3200,2.401
23.3600,2.423
23.4000,2.436
23.4400,2.454
23.4800,2.436
23.5200,2.410
23.5600,2.343
23.6000,2.494
23.6400,2.298
23.6800,2.403
23.7200,2.401
23.7600,2.438
23.8000,2.394
23.8400,2.443
23.8800,2.466
23.9200,2.449
23.9600,2.366
24.0000,2.413
24.0400,2.384
24.0800,2.352
24.1200,2.403
24.1600,2.277
24.2000,2.321
24.2400,2.414
24.2800,2.298
24.3200,2.377
24.3600,2.365
24.4000,2.265
24.4400,2.345
24.4800,2.342
24.5200,2.325
24.5600,2.325
24.6000,2.385
24.6400,2.277
24.6800,2.362
24.7200,2.324
24.7600,2.333
24.8000,2.326
24.8400,2.274
24.8800,2.342
24.9200,2.227
24.9600,2.346
25.0000,2.305
25.0400,2.279
25.0800,2.282
25.1200,2.321
25.1600,2.228
25.2000,2.262
25.2400,2.283
25.2800,2.285
25.3200,2.289
25.3600,2.234
25.4000,2.200
25.4400,2.268
25.4800,2.275
25.5200,2.277
25.5600,2.202
25.6000,2.270
25.6400,2.259
25.6800,2.215
25.7200,2.202
25.7600,2.256
25.8000,2.167
25.8400,2.173
25.8800,2.194
25.9200,2.162
25.9600,2.135
26.0000,2.250
26.0400,2.248
26.0800,2.222
26.1200,2.230
26.1600,2.218
26.2000,2.179
26.2400,2.170
26.2800,2.167
26.3200,2.190
26.3600,2.159
26.4000,2.191
26.4400,2.094
26.4800,2.176
26.5200,2.100
26.5600,2.061
26.6000,2.091
26.6400,2.175
26.6800,2.160
26.7200,2.102
26.7600,2.142
26.8000,2.138
26.8400,2.126
26.8800,2.110
26.9200,2.122
26.9600,2.104
27.0000,2.074
27.0400,2.131
27.0800,2.067
27.1200,2.116
27.1600,2.114
27.2000,2.100
27.2400,2.111
27.2800,2.177
27.3200,2.021
27.3600,2.058
27.4000,2.013
27.4400,2.050
27.4800,2.017
27.5200,2.072
27.5600,2.043
27.6000,2.100
27.6400,2.109
27.6800,2.071
27.7200,2.075
27.7600,2.004
27.8000,2.057
27.8400,2.053
27.8800,2.064
27.9200,2.091
27.9600,2.049
28.0000,1.992
28.0400,2.042
28.0800,2.068
28.1200,2.020
28.1600,2.048
28.2000,2.032
28.2400,2.030
28.2800,2.046
28.3200,1.972
28.3600,1.979
28.4000,2.011
28.4400,2.102
28.4800,2.024
28.5200,2.001
28.5600,2.059
28.6000,2.107
28.6400,1.999
28.6800,1.963
28.7200,1.981
28.7600,1.996
28.8000,1.972
28.8400,1.982
28.8800,1.972
28.9200,2.036
28.9600,1.937
29.0000,1.879
29.0400,1.924
29.0800,1.839
29.1200,1.947
29.1600,1.850
29.2000,1.891
29.2400,1.901
29.2800,1.979
29.3200,1.938
29.3600,1.852
29.4000,1.901
29.4400,1.909
29.4800,1.841
29.5200,1.985
29.5600,1.950
29.6000,1.914
29.6400,1.835
29.6800,1.850
29.7200,1.899
29.7600,1.874
29.8000,1.920
29.8400,1.819
29.8800,1.885
29.9200,1.936
29.9600,1.901
30.0000,1.878
30.0400,1.855
30.0800,1.865
30.1200,1.862
30.1600,1.866
30.2000,1.888
30.2400,1.896
30.2800,1.828
30.3200,1.856
30.3600,1.824
30.4000,1.813
30.4400,1.898
30.4800,1.809
30.5200,1.855
30.5600,1.852
30.6000,1.839
30.6400,1.804
30.6800,1.823
30.7200,1.779
30.7600,1.854
30.8000,1.876
30.8400,1.756
30.8800,1.826
30.9200,1.801
30.9600,1.824
31.0000,1.790
31.0400,1.772
31.0800,1.846
31.1200,1.784
31.1600,1.799
31.2000,1.798
31.2400,1.799
31.2800,1.729
31.3200,1.792
31.3600,1.744
31.4000,1.722
31.4400,1.725
31.4800,1.741
31.5200,1.778
31.5600,1.814
31.6000,1.735
31.6400,1.759
31.6800,1.782
31.7200,1.772
31.7600,1.777
31.8000,1.733
31.8400,1.761
31.8800,1.780
31.9200,1.890
31.9600,1.789
32.0000,1.768
32.0400,1.792
32.0800,1.684
32.1200,1.703
32.1600,1.800
32.2000,1.706
32.2400,1.736
32.2800,1.727
32.3200,1.729
32.3600,1.714
32.4000,1.759
32.4400,1.655
32.4800,1.637
32.5200,1.690
32.5600,1.689
32.6000,1.753
32.6400,1.715
32.6800,1.740
32.7200,1.681
32.7600,1.678
32.8000,1.685
32.8400,1.768
32.8800,1.677
32.9200,1.787
32.9600,1.732
33.0000,1.666
33.0400,1.675
33.0800,1.675
33.1200,1.661
33.1600,1.647
33.2000,1.649
33.2400,1.650
33.2800,1.627
33.3200,1.595
33.3600,1.627
33.4000,1.692
33.4400,1.671
33.4800,1.608
33.5200,1.630
33.5600,1.605
33.6000,1.611
33.6400,1.648
33.6800,1.632
33.7200,1.612
33.7600,1.543
33.8000,1.606
33.8400,1.556
33.8800,1.628
33.9200,1.612
33.9600,1.547
34.0000,1.571
34.0400,1.669
34.0800,1.662
34.1200,1.601
34.1600,1.688
34.2000,1.654
34.2400,1.572
34.2800,1.648
34.3200,1.607
34.3600,1.640
34.4000,1.645
34.4400,1.530
34.4800,1.626
34.5200,1.603
34.5600,1.639
34.6000,1.576
34.6400,1.638
34.6800,1.584
34.7200,1.614
34.7600,1.528
34.8000,1.540
34.8400,1.577
34.8800,1.562
34.9200,1.591
34.9600,1.606
35.0000,1.546
35.0400,1.592
35.0800,1.556
35.1200,1.546
35.1600,1.557
35.2000,1.572
35.2400,1.558
35.2800,1.527
35.3200,1.573
35.3600,1.611
35.4000,1.515
35.4400,1.536
35.4800,1.495
35.5200,1.529
35.5600,1.549
35.6000,1.549
35.6400,1.493
35.6800,1.558
35.7200,1.553
35.7600,1.551
35.8000,1.461
35.8400,1.483
35.8800,1.551
35.9200,1.498
35.9600,1.473
36.0000,1.490
36.0400,1.538
36.0800,1.524
36.1200,1.490
36.1600,1.448
36.2000,1.476
36.2400,1.537
36.2800,1.503
36.3200,1.609
36.3600,1.546
36.4000,1.625
36.4400,1.558
36.4800,1.579
36.5200,1.509
36.5600,1.520
36.6000,1.559
36.6400,1.517
36.6800,1.531
36.7200,1.555
36.7600,1.504
36.8000,1.555
36.8400,1.539
36.8800,1.523
36.9200,1.538
36.9600,1.584
37.0000,1.522
37.0400,1.575
37.0800,1.585
37.1200,1.559
37.1600,1.537
37.2000,1.583
37.2400,1.573
37.2800,1.634
37.3200,1.688
37.3600,1.669
37.4000,1.631
37.4400,1.632
37.4800,1.685
37.5200,1.687
37.5600,1.662
37.6000,1.721
37.6400,1.750
37.6800,1.786
37.7200,1.960
37.7600,1.857
37.8000,1.993
37.8400,1.997
37.8800,2.136
37.9200,2.235
37.9600,2.337
38.0000,2.453
38.0400,2.710
38.0800,2.937
38.1200,3.425
38.1600,4.021
38.2000,4.804
38.2400,6.094
38.2800,8.113
38.3200,10.718
38.3600,14.332
38.4000,18.487
38.4400,20.951
38.4800,21.468
38.5200,20.000
38.5600,17.199
38.6000,13.598
38.6400,10.627
38.6800,7.942
38.7200,6.019
38.7600,4.830
38.8000,3.997
38.8400,3.411
38.8800,2.969
38.9200,2.654
38.9600,2.424
39.0000,2.231
39.0400,2.201
39.0800,1.979
39.1200,1.909
39.1600,1.808
39.2000,1.737
39.2400,1.795
39.2800,1.726
39.3200,1.642
39.3600,1.654
39.4000,1.616
39.4400,1.532
39.4800,1.526
39.5200,1.503
39.5600,1.596
39.6000,1.525
39.6400,1.423
39.6800,1.435
39.7200,1.369
39.7600,1.435
39.8000,1.405
39.8400,1.319
39.8800,1.380
39.9200,1.441
39.9600,1.361
40.0000,1.386
40.0400,1.501
40.0800,1.340
40.1200,1.351
40.1600,1.289
40.2000,1.305
40.2400,1.352
40.2800,1.319
40.3200,1.266
40.3600,1.280
40.4000,1.283
40.4400,1.277
40.4800,1.251
40.5200,1.284
40.5600,1.268
40.6000,1.318
40.6400,1.259
40.6800,1.245
40.7200,1.301
40.7600,1.310
40.8000,1.245
40.8400,1.251
40.8800,1.234
40.9200,1.253
40.9600,1.293
41.0000,1.221
41.0400,1.258
41.0800,1.226
41.1200,1.219
41.1600,1.228
41.2000,1.221
41.2400,1.281
41.2800,1.239
41.3200,1.176
41.3600,1.173
41.4000,1.200
41.4400,1.183
41.4800,1.190
41.5200,1.173
41.5600,1.188
41.6000,1.184
41.6400,1.184
41.6800,1.201
41.7200,1.192
41.7600,1.193
41.8000,1.203
41.8400,1.209
41.8800,1.142
41.9200,1.188
41.9600,1.118
42.0000,1.160
42.0400,1.113
42.0800,1.119
42.1200,1.183
42.1600,1.121
42.2000,1.142
42.2400,1.142
42.2800,1.171
42.3200,1.178
42.3600,1.170
42.4000,1.150
42.4400,1.142
42.4800,1.183
42.5200,1.247
42.5600,1.177
42.6000,1.207
42.6400,1.121
42.6800,1.126
42.7200,1.131
42.7600,1.109
42.8000,1.149
42.8400,1.189
42.8800,1.145
42.9200,1.140
42.9600,1.148
43.0000,1.146
43.0400,1.174
43.0800,1.151
43.1200,1.182
43.1600,1.087
43.2000,1.215
43.2400,1.185
43.2800,1.139
43.3200,1.170
43.3600,1.128
43.4000,1.145
43.4400,1.153
43.4800,1.196
43.5200,1.142
43.5600,1.216
43.6000,1.159
43.6400,1.211
43.6800,1.223
43.7200,1.232
43.7600,1.231
43.8000,1.207
43.8400,1.247
43.8800,1.289
43.9200,1.267
43.9600,1.325
44.0000,1.266
44.0400,1.315
44.0800,1.400
44.1200,1.394
44.1600,1.518
44.2000,1.410
44.2400,1.561
44.2800,1.598
44.3200,1.672
44.3600,1.848
44.4000,1.939
44.4400,2.157
44.4800,2.425
44.5200,2.624
44.5600,2.905
44.6000,3.358
44.6400,3.560
44.6800,4.001
44.7200,4.111
44.7600,4.287
44.8000,4.288
44.8400,4.295
44.8800,4.018
44.9200,3.725
44.9600,3.340
45.0000,2.882
45.0400,2.465
45.0800,2.322
45.1200,2.043
45.1600,1.868
45.2000,1.728
45.2400,1.626
45.2800,1.481
45.3200,1.464
45.3600,1.391
45.4000,1.298
45.4400,1.334
45.4800,1.185
45.5200,1.199
45.5600,1.155
45.6000,1.173
45.6400,1.177
45.6800,1.075
45.7200,1.106
45.7600,1.083
45.8000,1.084
45.8400,1.081
45.8800,1.048
45.9200,0.998
45.9600,1.097
46.0000,0.987
46.0400,0.959
46.0800,0.969
46.1200,1.049
46.1600,0.952
46.2000,0.944
46.2400,0.969
46.2800,0.992
46.3200,1.022
46.3600,0.960
46.4000,0.956
46.4400,0.992
46.4800,0.931
46.5200,0.954
46.5600,0.957
46.6000,0.914
46.6400,0.958
46.6800,0.918
46.7200,0.967
46.7600,0.928
46.8000,0.929
46.8400,0.973
46.8800,0.978
46.9200,0.979
46.9600,0.929
47.0000,0.943
47.0400,0.891
47.0800,0.927
47.1200,0.881
47.1600,0.942
47.2000,0.910
47.2400,0.929
47.2800,0.856
47.3200,0.873
47.3600,0.904
47.4000,0.902
47.4400,0.864
47.4800,0.959
47.5200,0.856
47.5600,0.950
47.6000,0.926
47.6400,0.896
47.6800,0.882
47.7200,0.903
47.7600,0.922
47.8000,0.875
47.8400,0.891
47.8800,0.853
47.9200,0.894
47.9600,0.872
48.0000,0.862
48.0400,0.895
48.0800,0.900
48.1200,0.862
48.1600,0.847
48.2000,0.886
48.2400,0.873
48.2800,0.852
48.3200,0.817
48.3600,0.857
48.4000,0.819
48.4400,0.867
48.4800,0.825
48.5200,0.826
48.5600,0.842
48.6000,0.852
48.6400,0.891
48.6800,0.905
48.7200,0.813
48.7600,0.843
48.8000,0.853
48.8400,0.833
48.8800,0.776
48.9200,0.832
48.9600,0.855
49.0000,0.832
49.0400,0.812
49.0800,0.853
49.1200,0.856
49.1600,0.881
49.2000,0.814
49.2400,0.786
49.2800,0.842
49.3200,0.821
49.3600,0.787
49.4000,0.807
49.4400,0.816
49.4800,0.837
49.5200,0.802
49.5600,0.782
49.6000,0.821
49.6400,0.754
49.6800,0.814
49.7200,0.798
49.7600,0.828
49.8000,0.787
49.8400,0.790
49.8800,0.821
49.9200,0.759
49.9600,0.784
50.0000,0.791
50.0400,0.810
50.0800,0.788
50.1200,0.797
50.1600,0.817
50.2000,0.768
50.2400,0.796
50.2800,0.804
50.3200,0.821
50.3600,0.807
50.4000,0.795
50.4400,0.786
50.4800,0.783
50.5200,0.808
50.5600,0.764
50.6000,0.814
50.6400,0.768
50.6800,0.770
50.7200,0.800
50.7600,0.797
50.8000,0.781
50.8400,0.722
50.8800,0.754
50.9200,0.740
50.9600,0.781
51.0000,0.769
51.0400,0.791
51.0800,0.781
51.1200,0.781
51.1600,0.776
51.2000,0.793
51.2400,0.781
51.2800,0.743
51.3200,0.778
51.3600,0.749
51.4000,0.734
51.4400,0.773
51.4800,0.724
51.5200,0.771
51.5600,0.723
51.6000,0.746
51.6400,0.774
51.6800,0.781
51.7200,0.704
51.7600,0.710
51.8000,0.705
51.8400,0.732
51.8800,0.748
51.9200,0.729
51.9600,0.764
52.0000,0.746
52.0400,0.725
52.0800,0.731
52.1200,0.747
52.1600,0.738
52.2000,0.724
52.2400,0.707
52.2800,0.756
52.3200,0.747
52.3600,0.759
52.4000,0.728
52.4400,0.715
52.4800,0.723
52.5200,0.711
52.5600,0.706
52.6000,0.741
52.6400,0.718
52.6800,0.717
52.7200,0.714
52.7600,0.723
52.8000,0.721
52.8400,0.703
52.8800,0.722
52.9200,0.698
52.9600,0.714
53.0000,0.735
53.0400,0.744
53.0800,0.743
53.1200,0.716
53.1600,0.738
53.2000,0.738
53.2400,0.685
53.2800,0.712
53.3200,0.685
53.3600,0.737
53.4000,0.726
53.4400,0.742
53.4800,0.701
53.5200,0.704
53.5600,0.700
53.6000,0.711
53.6400,0.688
53.6800,0.724
53.7200,0.714
53.7600,0.689
53.8000,0.694
53.8400,0.699
53.8800,0.709
53.9200,0.732
53.9600,0.708
54.0000,0.705
54.0400,0.654
54.0800,0.657
54.1200,0.692
54.1600,0.701
54.2000,0.693
54.2400,0.677
54.2800,0.685
54.3200,0.678
54.3600,0.689
54.4000,0.668
54.4400,0.659
54.4800,0.662
54.5200,0.701
54.5600,0.699
54.6000,0.657
54.6400,0.666
54.6800,0.673
54.7200,0.649
54.7600,0.652
54.8000,0.656
54.8400,0.626
54.8800,0.686
54.9200,0.634
54.9600,0.713
55.0000,0.694
55.0400,0.684
55.0800,0.657
55.1200,0.673
55.1600,0.677
55.2000,0.652
55.2400,0.699
55.2800,0.646
55.3200,0.621
55.3600,0.661
55.4000,0.655
55.4400,0.648
55.4800,0.680
55.5200,0.693
55.5600,0.645
55.6000,0.641
55.6400,0.634
55.6800,0.647
55.7200,0.656
55.7600,0.677
55.8000,0.689
55.8400,0.626
55.8800,0.668
55.9200,0.660
55.9600,0.686
56.0000,0.675
56.0400,0.665
56.0800,0.640
56.1200,0.661
56.1600,0.698
56.2000,0.639
56.2400,0.609
56.2800,0.700
56.3200,0.649
56.3600,0.636
56.4000,0.639
56.4400,0.647
56.4800,0.623
56.5200,0.701
56.5600,0.685
56.6000,0.677
56.6400,0.656
56.6800,0.657
56.7200,0.636
56.7600,0.645
56.8000,0.580
56.8400,0.581
56.8800,0.640
56.9200,0.648
56.9600,0.593
57.0000,0.619
57.0400,0.588
57.0800,0.641
57.1200,0.636
57.1600,0.604
57.2000,0.620
57.2400,0.622
57.2800,0.604
57.3200,0.618
57.3600,0.612
57.4000,0.595
57.4400,0.633
57.4800,0.603
57.5200,0.649
57.5600,0.636
57.6000,0.603
57.6400,0.651
57.6800,0.631
57.7200,0.633
57.7600,0.622
57.8000,0.677
57.8400,0.617
57.8800,0.619
57.9200,0.591
57.9600,0.655
58.0000,0.603
58.0400,0.621
58.0800,0.573
58.1200,0.628
58.1600,0.628
58.2000,0.637
58.2400,0.633
58.2800,0.622
58.3200,0.639
58.3600,0.615
58.4000,0.627
58.4400,0.621
58.4800,0.609
58.5200,0.615
58.5600,0.635
58.6000,0.623
58.6400,0.631
58.6800,0.599
58.7200,0.634
58.7600,0.575
58.8000,0.594
58.8400,0.607
58.8800,0.586
58.9200,0.603
58.9600,0.609
59.0000,0.596
59.0400,0.564
59.0800,0.611
59.1200,0.610
59.1600,0.634
59.2000,0.597
59.2400,0.564
59.2800,0.618
59.3200,0.571
59.3600,0.596
59.4000,0.568
59.4400,0.632
59.4800,0.612
59.5200,0.628
59.5600,0.609
59.6000,0.567
59.6400,0.574
59.6800,0.577
59.7200,0.574
59.7600,0.550
59.8000,0.573
59.8400,0.600
59.8800,0.607
59.9200,0.574
59.9600,0.589
60.0000,0.590
60.0400,0.578
60.0800,0.578
60.1200,0.624
60.1600,0.580
60.2000,0.570
60.2400,0.575
60.2800,0.549
60.3200,0.571
60.3600,0.572
60.4000,0.542
60.4400,0.557
60.4800,0.555
60.5200,0.555
60.5600,0.607
60.6000,0.554
60.6400,0.564
60.6800,0.560
60.7200,0.534
60.7600,0.533
60.8000,0.566
60.8400,0.554
60.8800,0.593
60.9200,0.580
60.9600,0.552
61.0000,0.525
61.0400,0.526
61.0800,0.603
61.1200,0.545
61.1600,0.539
61.2000,0.601
61.2400,0.576
61.2800,0.571
61.3200,0.550
61.3600,0.580
61.4000,0.577
61.4400,0.524
61.4800,0.518
61.5200,0.553
61.5600,0.560
61.6000,0.580
61.6400,0.636
61.6800,0.660
61.7200,0.627
61.7600,0.633
61.8000,0.555
61.8400,0.597
61.8800,0.562
61.9200,0.568
61.9600,0.542
62.0000,0.565
62.0400,0.547
62.0800,0.569
62.1200,0.596
62.1600,0.590
62.2000,0.517
62.2400,0.526
62.2800,0.522
62.3200,0.574
62.3600,0.540
62.4000,0.574
62.4400,0.534
62.4800,0.548
62.5200,0.563
62.5600,0.571
62.6000,0.568
62.6400,0.553
62.6800,0.547
62.7200,0.565
62.7600,0.546
62.8000,0.576
62.8400,0.590
62.8800,0.552
62.9200,0.558
62.9600,0.591
63.0000,0.549
63.0400,0.538
63.0800,0.611
63.1200,0.562
63.1600,0.537
63.2000,0.552
63.2400,0.531
63.2800,0.535
63.3200,0.529
63.3600,0.566
63.4000,0.568
63.4400,0.608
63.4800,0.598
63.5200,0.568
63.5600,0.585
63.6000,0.594
63.6400,0.580
63.6800,0.595
63.7200,0.584
63.7600,0.581
63.8000,0.587
63.8400,0.567
63.8800,0.612
63.9200,0.600
63.9600,0.550
64.0000,0.621
64.0400,0.606
64.0800,0.605
64.1200,0.631
64.1600,0.649
64.2000,0.649
64.2400,0.659
64.2800,0.722
64.3200,0.672
64.3600,0.689
64.4000,0.739
64.4400,0.775
64.4800,0.782
64.5200,0.815
64.5600,0.865
64.6000,0.918
64.6400,0.944
64.6800,1.047
64.7200,1.094
64.7600,1.253
64.8000,1.412
64.8400,1.530
64.8800,1.703
64.9200,1.960
64.9600,2.225
65.0000,2.345
65.0400,2.427
65.0800,2.569
65.1200,2.438
65.1600,2.413
65.2000,2.248
65.2400,2.059
65.2800,1.920
65.3200,1.718
65.3600,1.496
65.4000,1.415
65.4400,1.241
65.4800,1.122
65.5200,1.074
65.5600,1.021
65.6000,0.944
65.6400,0.920
65.6800,0.857
65.7200,0.866
65.7600,0.825
65.8000,0.837
65.8400,0.868
65.8800,0.811
65.9200,0.817
65.9600,0.833
66.0000,0.773
66.0400,0.826
66.0800,0.850
66.1200,0.778
66.1600,0.798
66.2000,0.784
66.2400,0.788
66.2800,0.834
66.3200,0.788
66.3600,0.769
66.4000,0.779
66.4400,0.825
66.4800,0.855
66.5200,0.798
66.5600,0.793
66.6000,0.871
66.6400,0.885
66.6800,0.838
66.7200,0.888
66.7600,0.815
66.8000,0.901
66.8400,0.888
66.8800,0.941
66.9200,0.969
66.9600,0.981
67.0000,1.025
67.0400,1.043
67.0800,1.048
67.1200,1.000
67.1600,1.069
67.2000,1.086
67.2400,1.095
67.2800,1.042
67.3200,1.066
67.3600,1.148
67.4000,1.175
67.4400,1.167
67.4800,1.206
67.5200,1.254
67.5600,1.218
67.6000,1.254
67.6400,1.219
67.6800,1.340
67.7200,1.343
67.7600,1.351
67.8000,1.389
67.8400,1.339
67.8800,1.416
67.9200,1.467
67.9600,1.585
68.0000,1.649
68.0400,1.582
68.0800,1.595
68.1200,1.712
68.1600,1.741
68.2000,1.738
68.2400,1.841
68.2800,1.924
68.3200,2.045
68.3600,2.079
68.4000,2.157
68.4400,2.264
68.4800,2.319
68.5200,2.457
68.5600,2.634
68.6000,2.781
68.6400,2.979
68.6800,3.247
68.7200,3.832
68.7600,5.098
68.8000,6.438
68.8400,7.152
68.8800,7.283
68.9200,7.472
68.9600,9.023
69.0000,12.831
69.0400,21.997
69.0800,57.071
69.1200,279.060
69.1600,521.090
69.2000,311.245
69.2400,76.870
69.2800,54.147
69.3200,164.623
69.3600,269.469
69.4000,153.821
69.4400,38.364
69.4800,15.319
69.5200,9.927
69.5600,7.426
69.6000,6.189
69.6400,5.314
69.6800,4.643
69.7200,4.153
69.7600,3.786
69.8000,3.489
69.8400,3.230
69.8800,3.006
69.9200,2.802
69.9600,2.688
70.0000,2.528
70.0400,2.478
70.0800,2.394
70.1200,2.347
70.1600,2.239
70.2000,2.186
70.2400,2.005
70.2800,2.035
70.3200,1.901
70.3600,1.838
70.4000,1.796
70.4400,1.771
70.4800,1.683
70.5200,1.585
70.5600,1.579
70.6000,1.503
70.6400,1.463
70.6800,1.450
70.7200,1.426
70.7600,1.404
70.8000,1.423
70.8400,1.306
70.8800,1.248
70.9200,1.222
70.9600,1.208
71.0000,1.183
71.0400,1.190
71.0800,1.182
71.1200,1.085
71.1600,1.039
71.2000,1.047
71.2400,1.087
71.2800,1.018
71.3200,0.933
71.3600,0.949
71.4000,0.908
71.4400,0.894
71.4800,0.938
71.5200,0.863
71.5600,0.910
71.6000,0.940
71.6400,0.853
71.6800,0.860
71.7200,0.798
71.7600,0.851
71.8000,0.786
71.8400,0.750
71.8800,0.793
71.9200,0.765
71.9600,0.705
72.0000,0.734
72.0400,0.693
72.0800,0.707
72.1200,0.676
72.1600,0.694
72.2000,0.612
72.2400,0.674
72.2800,0.674
72.3200,0.646
72.3600,0.634
72.4000,0.613
72.4400,0.655
72.4800,0.618
72.5200,0.598
72.5600,0.586
72.6000,0.579
72.6400,0.572
72.6800,0.630
72.7200,0.583
72.7600,0.564
72.8000,0.547
72.8400,0.556
72.8800,0.549
72.9200,0.525
72.9600,0.582
73.0000,0.528
73.0400,0.550
73.0800,0.553
73.1200,0.533
73.1600,0.512
73.2000,0.523
73.2400,0.503
73.2800,0.515
73.3200,0.492
73.3600,0.488
73.4000,0.480
73.4400,0.496
73.4800,0.499
73.5200,0.463
73.5600,0.498
73.6000,0.478
73.6400,0.494
73.6800,0.475
73.7200,0.494
73.7600,0.445
73.8000,0.446
73.8400,0.445
73.8800,0.483
73.9200,0.431
73.9600,0.455
74.0000,0.430
74.0400,0.450
74.0800,0.453
74.1200,0.460
74.1600,0.438
74.2000,0.439
74.2400,0.433
74.2800,0.437
74.3200,0.427
74.3600,0.454
74.4000,0.464
74.4400,0.392
74.4800,0.424
74.5200,0.443
74.5600,0.456
74.6000,0.409
74.6400,0.422
74.6800,0.428
74.7200,0.425
74.7600,0.404
74.8000,0.418
74.8400,0.432
74.8800,0.454
74.9200,0.435
74.9600,0.457
75.0000,0.417
75.0400,0.424
75.0800,0.385
75.1200,0.427
75.1600,0.404
75.2000,0.427
75.2400,0.395
75.2800,0.388
75.3200,0.384
75.3600,0.366
75.4000,0.370
75.4400,0.410
75.4800,0.441
75.5200,0.393
75.5600,0.414
75.6000,0.378
75.6400,0.398
75.6800,0.356
75.7200,0.376
75.7600,0.397
75.8000,0.396
75.8400,0.384
75.8800,0.393
75.9200,0.381
75.9600,0.366
76.0000,0.396
76.0400,0.382
76.0800,0.374
76.1200,0.380
76.1600,0.375
76.2000,0.351
76.2400,0.380
76.2800,0.388
76.3200,0.388
76.3600,0.379
76.4000,0.376
76.4400,0.435
76.4800,0.400
76.5200,0.386
76.5600,0.399
76.6000,0.411
76.6400,0.432
76.6800,0.397
76.7200,0.435
76.7600,0.370
76.8000,0.374
76.8400,0.405
76.8800,0.396
76.9200,0.404
76.9600,0.418
77.0000,0.402
77.0400,0.444
77.0800,0.436
77.1200,0.429
77.1600,0.393
77.2000,0.405
77.2400,0.404
77.2800,0.410
77.3200,0.437
77.3600,0.439
77.4000,0.445
77.4400,0.488
77.4800,0.463
77.5200,0.482
77.5600,0.500
77.6000,0.528
77.6400,0.589
77.6800,0.596
77.7200,0.636
77.7600,0.690
77.8000,0.720
77.8400,0.802
77.8800,0.902
77.9200,1.031
77.9600,1.086
78.0000,1.228
78.0400,1.326
78.0800,1.437
78.1200,1.584
78.1600,1.636
78.2000,1.593
78.2400,1.730
78.2800,1.681
78.3200,1.631
78.3600,1.568
78.4000,1.422
78.4400,1.302
78.4800,1.235
78.5200,1.100
78.5600,0.979
78.6000,0.906
78.6400,0.813
78.6800,0.730
78.7200,0.708
78.7600,0.604
78.8000,0.559
78.8400,0.537
78.8800,0.537
78.9200,0.487
78.9600,0.499
79.0000,0.447
79.0400,0.410
79.0800,0.399
79.1200,0.403
79.1600,0.394
79.2000,0.403
79.2400,0.366
79.2800,0.410
79.3200,0.361
79.3600,0.339
79.4000,0.378
79.4400,0.330
79.4800,0.366
79.5200,0.354
79.5600,0.363
79.6000,0.350
79.6400,0.382
79.6800,0.304
79.7200,0.333
79.7600,0.330
79.8000,0.341
79.8400,0.317
79.8800,0.332
79.9200,0.318
79.9600,0.309
80.0000,0.357
