theta,intensity
5.0000,6.618
5.0400,6.393
5.0800,6.198
5.1200,6.110
5.1600,6.008
5.2000,5.804
5.2400,5.766
5.2800,5.583
5.3200,5.700
5.3600,5.411
5.4000,5.494
5.4400,5.377
5.4800,5.091
5.5200,5.144
5.5600,5.132
5.6000,4.945
5.6400,4.952
5.6800,4.863
5.7200,4.710
5.7600,4.555
5.8000,4.607
5.8400,4.542
5.8800,4.482
5.9200,4.625
5.9600,4.497
6.0000,4.415
6.0400,4.493
6.0800,4.467
6.1200,4.289
6.1600,4.444
6.2000,4.379
6.2400,4.407
6.2800,4.390
6.3200,4.458
6.3600,4.329
6.4000,4.373
6.4400,4.282
6.4800,4.464
6.5200,4.373
6.5600,4.473
6.6000,4.358
6.6400,4.304
6.6800,4.319
6.7200,4.326
6.7600,4.356
6.8000,4.231
6.8400,4.247
6.8800,4.350
6.9200,4.203
6.9600,4.341
7.0000,4.173
7.0400,4.198
7.0800,4.300
7.1200,4.142
7.1600,4.200
7.2000,4.109
7.2400,4.263
7.2800,4.179
7.3200,4.264
7.3600,4.326
7.4000,4.277
7.4400,4.151
7.4800,4.133
7.5200,4.126
7.5600,4.163
7.6000,4.079
7.6400,4.158
7.6800,4.138
7.7200,4.057
7.7600,4.107
7.8000,4.017
7.8400,4.110
7.8800,4.014
7.9200,4.057
7.9600,4.067
8.0000,4.110
8.0400,4.039
8.0800,4.213
8.1200,4.172
8.1600,3.992
8.2000,4.081
8.2400,4.083
8.2800,4.060
8.3200,4.084
8.3600,4.022
8.4000,4.168
8.4400,4.028
8.4800,4.053
8.5200,4.037
8.5600,3.962
8.6000,3.878
8.6400,3.894
8.6800,3.993
8.7200,4.002
8.7600,4.077
8.8000,3.938
8.8400,4.097
8.8800,3.983
8.9200,3.860
8.9600,3.925
9.0000,3.924
9.0400,4.009
9.0800,3.909
9.1200,3.928
9.1600,3.940
9.2000,3.932
9.2400,4.100
9.2800,3.926
9.3200,3.897
9.3600,3.884
9.4000,3.895
9.4400,3.894
9.4800,3.952
9.5200,3.896
9.5600,4.096
9.6000,3.993
9.6400,3.930
9.6800,3.832
9.7200,3.817
9.7600,3.824
9.8000,3.945
9.8400,3.781
9.8800,3.827
9.9200,3.841
9.9600,3.857
10.0000,3.827
10.0400,3.790
10.0800,3.824
10.1200,3.730
10.1600,3.695
10.2000,3.817
10.2400,3.828
10.2800,3.835
10.3200,3.722
10.3600,3.871
10.4000,3.610
10.4400,3.851
10.4800,3.735
10.5200,3.698
10.5600,3.794
10.6000,3.963
10.6400,3.772
10.6800,3.631
10.7200,3.730
10.7600,3.709
10.8000,3.739
10.8400,3.746
10.8800,3.626
10.9200,3.746
10.9600,3.710
11.0000,3.641
11.0400,3.675
11.0800,3.546
11.1200,3.753
11.1600,3.684
11.2000,3.742
11.2400,3.691
11.2800,3.653
11.3200,3.605
11.3600,3.743
11.4000,3.698
11.4400,3.675
11.4800,3.649
11.5200,3.667
11.5600,3.661
11.6000,3.590
11.6400,3.613
11.6800,3.641
11.7200,3.633
11.7600,3.675
11.8000,3.727
11.8400,3.643
11.8800,3.686
11.9200,3.579
11.9600,3.560
12.0000,3.609
12.0400,3.582
12.0800,3.587
12.1200,3.580
12.1600,3.710
12.2000,3.629
12.2400,3.553
12.2800,3.584
12.3200,3.733
12.3600,3.602
12.4000,3.577
12.4400,3.575
12.4800,3.658
12.5200,3.682
12.5600,3.536
12.6000,3.579
12.6400,3.524
12.6800,3.517
12.7200,3.507
12.7600,3.593
12.8000,3.563
12.8400,3.537
12.8800,3.404
12.9200,3.568
12.9600,3.636
13.0000,3.469
13.0400,3.516
13.0800,3.531
13.1200,3.529
13.1600,3.413
13.2000,3.433
13.2400,3.411
13.2800,3.514
13.3200,3.457
13.3600,3.539
13.4000,3.577
13.4400,3.481
13.4800,3.514
13.5200,3.532
13.5600,3.401
13.6000,3.483
13.6400,3.458
13.6800,3.530
13.7200,3.491
13.7600,3.331
13.8000,3.308
13.8400,3.525
13.8800,3.415
13.9200,3.387
13.9600,3.372
14.0000,3.349
14.0400,3.460
14.0800,3.395
14.1200,3.375
14.1600,3.401
14.2000,3.330
14.2400,3.359
14.2800,3.451
14.3200,3.396
14.3600,3.366
14.4000,3.470
14.4400,3.373
14.4800,3.353
14.5200,3.256
14.5600,3.216
14.6000,3.365
14.6400,3.364
14.6800,3.284
14.7200,3.326
14.7600,3.331
14.8000,3.376
14.8400,3.189
14.8800,3.348
14.9200,3.360
14.9600,3.301
15.0000,3.200
15.0400,3.262
15.0800,3.224
15.1200,3.297
15.1600,3.194
15.2000,3.307
15.2400,3.243
15.2800,3.232
15.3200,3.267
15.3600,3.167
15.4000,3.295
15.4400,3.244
15.4800,3.335
15.5200,3.245
15.5600,3.215
15.6000,3.335
15.6400,3.272
15.6800,3.267
15.7200,3.240
15.7600,3.219
15.8000,3.064
15.8400,3.167
15.8800,3.275
15.9200,3.194
15.9600,3.067
16.0000,3.212
16.0400,3.220
16.0800,3.179
16.1200,3.163
16.1600,3.256
16.2000,3.154
16.2400,3.256
16.2800,3.008
16.3200,3.257
16.3600,3.143
16.4000,3.206
16.4400,3.204
16.4800,3.213
16.5200,3.075
16.5600,3.189
16.6000,3.103
16.6400,3.091
16.6800,3.156
16.7200,3.210
16.7600,3.116
16.8000,3.116
16.8400,3.160
16.8800,3.168
16.9200,3.129
16.9600,2.995
17.0000,3.243
17.0400,3.113
17.0800,3.020
17.1200,3.065
17.1600,3.112
17.2000,3.119
17.2400,3.078
17.2800,3.106
17.3200,2.984
17.3600,3.077
17.4000,2.943
17.4400,2.977
17.4800,3.000
17.5200,3.055
17.5600,3.060
17.6000,3.122
17.6400,3.040
17.6800,3.000
17.7200,3.056
17.7600,3.072
17.8000,2.952
17.8400,3.026
17.8800,3.064
17.9200,3.039
17.9600,3.048
18.0000,3.037
18.0400,3.011
18.0800,3.074
18.1200,2.958
18.1600,3.039
18.2000,2.982
18.2400,2.909
18.2800,3.039
18.3200,3.052
18.3600,2.914
18.4000,2.927
18.4400,3.005
18.4800,2.875
18.5200,2.934
18.5600,2.988
18.6000,2.936
18.6400,2.863
18.6800,3.081
18.7200,2.912
18.7600,2.849
18.8000,2.864
18.8400,2.947
18.8800,2.903
18.9200,2.934
18.9600,2.915
19.0000,2.982
19.0400,2.919
19.0800,3.029
19.1200,2.809
19.1600,2.873
19.2000,2.885
19.2400,2.846
19.2800,2.811
19.3200,2.877
19.3600,2.874
19.4000,2.798
19.4400,2.807
19.4800,2.947
19.5200,2.831
19.5600,2.911
19.6000,2.846
19.6400,2.812
19.6800,2.765
19.7200,2.854
19.7600,2.825
19.8000,2.833
19.8400,2.854
19.8800,2.861
19.9200,2.774
19.9600,2.802
20.0000,2.925
20.0400,2.822
20.0800,2.879
20.1200,2.806
20.1600,2.796
20.2000,2.772
20.2400,2.709
20.2800,2.721
20.3200,2.797
20.3600,2.788
20.4000,2.832
20.4400,2.710
20.4800,2.746
20.5200,2.746
20.5600,2.678
20.6000,2.749
20.6400,2.768
20.6800,2.795
20.7200,2.749
20.7600,2.730
20.8000,2.843
20.8400,2.756
20.8800,2.775
20.9200,2.847
20.9600,2.892
21.0000,2.760
21.0400,2.821
21.0800,2.859
21.1200,2.861
21.1600,2.811
21.2000,2.862
21.2400,2.784
21.2800,2.892
21.3200,2.961
21.3600,2.992
21.4000,3.041
21.4400,3.016
21.4800,2.967
21.5200,2.943
21.5600,3.007
21.6000,2.960
21.6400,2.865
21.6800,2.853
21.7200,2.875
21.7600,2.846
21.8000,2.856
21.8400,2.812
21.8800,2.748
21.9200,2.703
21.9600,2.766
22.0000,2.776
22.0400,2.647
22.0800,2.691
22.1200,2.639
22.1600,2.681
22.2000,2.651
22.2400,2.571
22.2800,2.668
22.3200,2.648
22.3600,2.554
22.4000,2.662
22.4400,2.622
22.4800,2.619
22.5200,2.601
22.5600,2.502
22.6000,2.527
22.6400,2.614
22.6800,2.559
22.7200,2.546
22.7600,2.580
22.8000,2.603
22.8400,2.592
22.8800,2.597
22.9200,2.513
22.9600,2.595
23.0000,2.564
23.0400,2.588
23.0800,2.555
23.1200,2.496
23.1600,2.529
23.2000,2.563
23.2400,2.525
23.2800,2.579
23.3200,2.453
23.3600,2.541
23.4000,2.507
23.4400,2.557
23.4800,2.463
23.5200,2.601
23.5600,2.501
23.6000,2.473
23.6400,2.427
23.6800,2.431
23.7200,2.472
23.7600,2.482
23.8000,2.355
23.8400,2.478
23.8800,2.406
23.9200,2.463
23.9600,2.485
24.0000,2.485
24.0400,2.559
24.0800,2.397
24.1200,2.343
24.1600,2.462
24.2000,2.417
24.2400,2.447
24.2800,2.451
24.3200,2.417
24.3600,2.336
24.4000,2.401
24.4400,2.384
24.4800,2.421
24.5200,2.466
24.5600,2.394
24.6000,2.357
24.6400,2.410
24.6800,2.386
24.7200,2.420
24.7600,2.305
24.8000,2.456
24.8400,2.358
24.8800,2.439
24.9200,2.527
24.9600,2.395
25.0000,2.472
25.0400,2.474
25.0800,2.431
25.1200,2.420
25.1600,2.367
25.2000,2.300
25.2400,2.335
25.2800,2.370
25.3200,2.330
25.3600,2.423
25.4000,2.388
25.4400,2.387
25.4800,2.362
25.5200,2.334
25.5600,2.433
25.6000,2.361
25.6400,2.338
25.6800,2.381
25.7200,2.383
25.7600,2.388
25.8000,2.248
25.8400,2.314
25.8800,2.344
25.9200,2.321
25.9600,2.378
26.0000,2.406
26.0400,2.232
26.0800,2.330
26.1200,2.264
26.1600,2.373
26.2000,2.369
26.2400,2.306
26.2800,2.222
26.3200,2.329
26.3600,2.294
26.4000,2.260
26.4400,2.293
26.4800,2.362
26.5200,2.390
26.5600,2.486
26.6000,2.449
26.6400,2.501
26.6800,2.533
26.7200,2.404
26.7600,2.438
26.8000,2.319
26.8400,2.395
26.8800,2.371
26.9200,2.329
26.9600,2.216
27.0000,2.245
27.0400,2.148
27.0800,2.226
27.1200,2.255
27.1600,2.237
27.2000,2.290
27.2400,2.303
27.2800,2.220
27.3200,2.307
27.3600,2.231
27.4000,2.207
27.4400,2.249
27.4800,2.208
27.5200,2.163
27.5600,2.283
27.6000,2.207
27.6400,2.209
27.6800,2.177
27.7200,2.126
27.7600,2.240
27.8000,2.167
27.8400,2.231
27.8800,2.080
27.9200,2.110
27.9600,2.197
28.0000,2.101
28.0400,2.249
28.0800,2.190
28.1200,2.254
28.1600,2.143
28.2000,2.161
28.2400,2.159
28.2800,2.235
28.3200,2.215
28.3600,2.247
28.4000,2.254
28.4400,2.280
28.4800,2.272
28.5200,2.216
28.5600,2.108
28.6000,2.165
28.6400,2.106
28.6800,2.265
28.7200,2.167
28.7600,2.238
28.8000,2.167
28.8400,2.208
28.8800,2.279
28.9200,2.192
28.9600,2.246
29.0000,2.160
29.0400,2.198
29.0800,2.181
29.1200,2.215
29.1600,2.191
29.2000,2.235
29.2400,2.188
29.2800,2.187
29.3200,2.198
29.3600,2.169
29.4000,2.242
29.4400,2.164
29.4800,2.344
29.5200,2.357
29.5600,2.300
29.6000,2.359
29.6400,2.414
29.6800,2.493
29.7200,2.431
29.7600,2.481
29.8000,2.525
29.8400,2.627
29.8800,2.714
29.9200,2.806
29.9600,2.885
30.0000,2.890
30.0400,2.988
30.0800,3.111
30.1200,3.216
30.1600,3.351
30.2000,3.543
30.2400,3.820
30.2800,3.816
30.3200,3.955
30.3600,4.135
30.4000,4.370
30.4400,4.442
30.4800,4.635
30.5200,4.774
30.5600,4.934
30.6000,4.866
30.6400,4.743
30.6800,4.542
30.7200,4.273
30.7600,4.088
30.8000,3.926
30.8400,3.688
30.8800,3.498
30.9200,3.390
30.9600,3.211
31.0000,3.092
31.0400,3.021
31.0800,2.814
31.1200,2.776
31.1600,2.664
31.2000,2.675
31.2400,2.359
31.2800,2.486
31.3200,2.385
31.3600,2.341
31.4000,2.270
31.4400,2.334
31.4800,2.160
31.5200,2.275
31.5600,2.150
31.6000,2.136
31.6400,2.190
31.6800,2.151
31.7200,2.111
31.7600,2.020
31.8000,2.071
31.8400,1.975
31.8800,2.062
31.9200,2.020
31.9600,2.000
32.0000,1.983
32.0400,2.002
32.0800,1.893
32.1200,1.933
32.1600,1.918
32.2000,2.011
32.2400,1.959
32.2800,1.970
32.3200,1.843
32.3600,1.868
32.4000,1.865
32.4400,1.857
32.4800,1.861
32.5200,1.820
32.5600,1.901
32.6000,1.827
32.6400,1.934
32.6800,1.899
32.7200,1.856
32.7600,1.801
32.8000,1.848
32.8400,1.812
32.8800,1.775
32.9200,1.827
32.9600,1.920
33.0000,1.898
33.0400,1.795
33.0800,1.827
33.1200,1.807
33.1600,1.797
33.2000,1.823
33.2400,1.801
33.2800,1.744
33.3200,1.808
33.3600,1.728
33.4000,1.820
33.4400,1.771
33.4800,1.758
33.5200,1.831
33.5600,1.752
33.6000,1.701
33.6400,1.758
33.6800,1.760
33.7200,1.710
33.7600,1.820
33.8000,1.715
33.8400,1.807
33.8800,1.752
33.9200,1.795
33.9600,1.734
34.0000,1.710
34.0400,1.739
34.0800,1.744
34.1200,1.752
34.1600,1.808
34.2000,1.834
34.2400,1.778
34.2800,1.795
34.3200,1.787
34.3600,1.855
34.4000,1.792
34.4400,1.771
34.4800,1.759
34.5200,1.696
34.5600,1.704
34.6000,1.758
34.6400,1.852
34.6800,1.867
34.7200,1.743
34.7600,1.805
34.8000,1.787
34.8400,1.924
34.8800,1.930
34.9200,1.917
34.9600,1.975
35.0000,1.998
35.0400,2.032
35.0800,2.059
35.1200,2.079
35.1600,2.020
35.2000,2.240
35.2400,2.354
35.2800,2.288
35.3200,2.389
35.3600,2.355
35.4000,2.518
35.4400,2.415
35.4800,2.443
35.5200,2.459
35.5600,2.284
35.6000,2.240
35.6400,2.300
35.6800,2.293
35.7200,2.362
35.7600,2.209
35.8000,2.230
35.8400,2.156
35.8800,2.159
35.9200,2.264
35.9600,2.115
36.0000,2.100
36.0400,1.976
36.0800,1.993
36.1200,2.015
36.1600,1.909
36.2000,1.830
36.2400,1.840
36.2800,1.878
36.3200,1.874
36.3600,1.771
36.4000,1.766
36.4400,1.805
36.4800,1.743
36.5200,1.788
36.5600,1.883
36.6000,1.813
36.6400,1.794
36.6800,1.758
36.7200,1.828
36.7600,1.877
36.8000,1.843
36.8400,1.900
36.8800,1.873
36.9200,1.809
36.9600,1.897
37.0000,1.929
37.0400,1.980
37.0800,1.990
37.1200,2.045
37.1600,1.947
37.2000,2.060
37.2400,2.054
37.2800,2.079
37.3200,2.138
37.3600,2.175
37.4000,2.270
37.4400,2.241
37.4800,2.432
37.5200,2.610
37.5600,2.651
37.6000,2.837
37.6400,2.974
37.6800,3.214
37.7200,3.533
37.7600,3.916
37.8000,4.202
37.8400,4.834
37.8800,5.389
37.9200,6.417
37.9600,7.271
38.0000,8.876
38.0400,10.692
38.0800,12.079
38.1200,11.441
38.1600,10.667
38.2000,9.336
38.2400,7.977
38.2800,6.708
38.3200,5.691
38.3600,5.061
38.4000,4.279
38.4400,3.882
38.4800,3.618
38.5200,3.280
38.5600,3.106
38.6000,2.838
38.6400,2.749
38.6800,2.544
38.7200,2.478
38.7600,2.299
38.8000,2.352
38.8400,2.193
38.8800,2.111
38.9200,2.058
38.9600,2.015
39.0000,1.908
39.0400,1.923
39.0800,1.888
39.1200,1.922
39.1600,1.777
39.2000,1.803
39.2400,1.703
39.2800,1.686
39.3200,1.649
39.3600,1.701
39.4000,1.742
39.4400,1.689
39.4800,1.689
39.5200,1.673
39.5600,1.569
39.6000,1.596
39.6400,1.617
39.6800,1.538
39.7200,1.586
39.7600,1.588
39.8000,1.573
39.8400,1.525
39.8800,1.588
39.9200,1.542
39.9600,1.612
40.0000,1.536
40.0400,1.545
40.0800,1.495
40.1200,1.514
40.1600,1.531
40.2000,1.577
40.2400,1.526
40.2800,1.567
40.3200,1.631
40.3600,1.605
40.4000,1.707
40.4400,1.729
40.4800,1.741
40.5200,1.854
40.5600,1.925
40.6000,1.956
40.6400,2.042
40.6800,2.131
40.7200,2.129
40.7600,2.140
40.8000,2.141
40.8400,2.120
40.8800,2.006
40.9200,1.943
40.9600,1.835
41.0000,1.735
41.0400,1.729
41.0800,1.605
41.1200,1.582
41.1600,1.568
41.2000,1.569
41.2400,1.540
41.2800,1.522
41.3200,1.465
41.3600,1.501
41.4000,1.468
41.4400,1.523
41.4800,1.465
41.5200,1.502
41.5600,1.473
41.6000,1.481
41.6400,1.377
41.6800,1.436
41.7200,1.426
41.7600,1.453
41.8000,1.481
41.8400,1.499
41.8800,1.469
41.9200,1.440
41.9600,1.464
42.0000,1.379
42.0400,1.334
42.0800,1.414
42.1200,1.368
42.1600,1.474
42.2000,1.425
42.2400,1.300
42.2800,1.316
42.3200,1.362
42.3600,1.368
42.4000,1.371
42.4400,1.337
42.4800,1.458
42.5200,1.354
42.5600,1.365
42.6000,1.354
42.6400,1.405
42.6800,1.362
42.7200,1.361
42.7600,1.354
42.8000,1.381
42.8400,1.381
42.8800,1.423
42.9200,1.326
42.9600,1.369
43.0000,1.389
43.0400,1.352
43.0800,1.441
43.1200,1.375
43.1600,1.472
43.2000,1.395
43.2400,1.426
43.2800,1.505
43.3200,1.458
43.3600,1.459
43.4000,1.574
43.4400,1.500
43.4800,1.589
43.5200,1.663
43.5600,1.715
43.6000,1.713
43.6400,1.802
43.6800,1.810
43.7200,1.799
43.7600,1.853
43.8000,1.869
43.8400,1.919
43.8800,2.150
43.9200,2.128
43.9600,2.313
44.0000,2.392
44.0400,2.544
44.0800,2.629
44.1200,2.727
44.1600,2.944
44.2000,3.201
44.2400,3.454
44.2800,3.628
44.3200,3.460
44.3600,3.392
44.4000,3.288
44.4400,2.964
44.4800,2.801
44.5200,2.538
44.5600,2.447
44.6000,2.290
44.6400,2.143
44.6800,2.055
44.7200,2.004
44.7600,1.801
44.8000,1.792
44.8400,1.639
44.8800,1.665
44.9200,1.601
44.9600,1.563
45.0000,1.515
45.0400,1.471
45.0800,1.424
45.1200,1.457
45.1600,1.414
45.2000,1.392
45.2400,1.430
45.2800,1.365
45.3200,1.253
45.3600,1.332
45.4000,1.318
45.4400,1.326
45.4800,1.355
45.5200,1.324
45.5600,1.388
45.6000,1.398
45.6400,1.331
45.6800,1.369
45.7200,1.309
45.7600,1.286
45.8000,1.257
45.8400,1.261
45.8800,1.249
45.9200,1.189
45.9600,1.197
46.0000,1.218
46.0400,1.154
46.0800,1.094
46.1200,1.140
46.1600,1.233
46.2000,1.111
46.2400,1.105
46.2800,1.110
46.3200,1.108
46.3600,1.073
46.4000,1.080
46.4400,1.075
46.4800,1.055
46.5200,1.028
46.5600,1.032
46.6000,1.016
46.6400,1.082
46.6800,1.042
46.7200,0.995
46.7600,1.035
46.8000,1.017
46.8400,0.898
46.8800,0.987
46.9200,0.975
46.9600,1.013
47.0000,1.007
47.0400,0.987
47.0800,0.996
47.1200,0.930
47.1600,1.018
47.2000,0.924
47.2400,0.967
47.2800,0.951
47.3200,1.046
47.3600,0.986
47.4000,0.945
47.4400,0.937
47.4800,0.999
47.5200,0.998
47.5600,0.917
47.6000,0.964
47.6400,0.914
47.6800,0.975
47.7200,0.923
47.7600,0.904
47.8000,0.961
47.8400,0.962
47.8800,0.940
47.9200,0.913
47.9600,0.961
48.0000,0.938
48.0400,0.908
48.0800,0.910
48.1200,0.934
48.1600,0.949
48.2000,0.909
48.2400,0.935
48.2800,0.993
48.3200,0.955
48.3600,0.966
48.4000,0.918
48.4400,0.940
48.4800,0.932
48.5200,0.912
48.5600,0.970
48.6000,0.887
48.6400,0.995
48.6800,0.919
48.7200,0.955
48.7600,0.971
48.8000,0.995
48.8400,0.929
48.8800,0.927
48.9200,0.958
48.9600,0.949
49.0000,0.964
49.0400,0.961
49.0800,0.937
49.1200,0.948
49.1600,0.930
49.2000,0.954
49.2400,0.957
49.2800,0.904
49.3200,0.950
49.3600,0.946
49.4000,1.028
49.4400,0.936
49.4800,0.929
49.5200,0.951
49.5600,0.953
49.6000,0.956
49.6400,0.937
49.6800,0.924
49.7200,0.931
49.7600,0.919
49.8000,0.918
49.8400,0.977
49.8800,0.957
49.9200,0.957
49.9600,0.951
50.0000,0.962
50.0400,1.019
50.0800,0.936
50.1200,0.952
50.1600,0.966
50.2000,1.019
50.2400,1.026
50.2800,1.082
50.3200,1.095
50.3600,1.070
50.4000,1.137
50.4400,1.173
50.4800,1.169
50.5200,1.165
50.5600,1.210
50.6000,1.249
50.6400,1.302
50.6800,1.386
50.7200,1.293
50.7600,1.365
50.8000,1.442
50.8400,1.511
50.8800,1.505
50.9200,1.515
50.9600,1.553
51.0000,1.572
51.0400,1.552
51.0800,1.521
51.1200,1.469
51.1600,1.469
51.2000,1.441
51.2400,1.393
51.2800,1.318
51.3200,1.294
51.3600,1.241
51.4000,1.251
51.4400,1.125
51.4800,1.140
51.5200,1.122
51.5600,1.129
51.6000,1.080
51.6400,1.039
51.6800,0.999
51.7200,1.036
51.7600,0.959
51.8000,0.910
51.8400,0.945
51.8800,0.938
51.9200,0.917
51.9600,0.956
52.0000,0.908
52.0400,0.906
52.0800,0.870
52.1200,0.895
52.1600,0.924
52.2000,0.907
52.2400,0.861
52.2800,0.851
52.3200,0.864
52.3600,0.805
52.4000,0.856
52.4400,0.865
52.4800,0.840
52.5200,0.878
52.5600,0.860
52.6000,0.869
52.6400,0.817
52.6800,0.866
52.7200,0.878
52.7600,0.896
52.8000,0.843
52.8400,0.855
52.8800,0.862
52.9200,0.868
52.9600,0.805
53.0000,0.851
53.0400,0.876
53.0800,0.866
53.1200,0.865
53.1600,0.876
53.2000,0.866
53.2400,0.847
53.2800,0.855
53.3200,0.864
53.3600,0.845
53.4000,0.842
53.4400,0.831
53.4800,0.782
53.5200,0.768
53.5600,0.783
53.6000,0.784
53.6400,0.759
53.6800,0.797
53.7200,0.803
53.7600,0.820
53.8000,0.743
53.8400,0.804
53.8800,0.753
53.9200,0.729
53.9600,0.715
54.0000,0.769
54.0400,0.697
54.0800,0.791
54.1200,0.702
54.1600,0.722
54.2000,0.765
54.2400,0.745
54.2800,0.760
54.3200,0.740
54.3600,0.720
54.4000,0.737
54.4400,0.781
54.4800,0.749
54.5200,0.748
54.5600,0.715
54.6000,0.683
54.6400,0.733
54.6800,0.742
54.7200,0.721
54.7600,0.750
54.8000,0.713
54.8400,0.752
54.8800,0.777
54.9200,0.794
54.9600,0.714
55.0000,0.730
55.0400,0.715
55.0800,0.725
55.1200,0.767
55.1600,0.675
55.2000,0.757
55.2400,0.704
55.2800,0.756
55.3200,0.745
55.3600,0.736
55.4000,0.684
55.4400,0.703
55.4800,0.711
55.5200,0.784
55.5600,0.783
55.6000,0.691
55.6400,0.768
55.6800,0.746
55.7200,0.767
55.7600,0.750
55.8000,0.777
55.8400,0.837
55.8800,0.753
55.9200,0.798
55.9600,0.770
56.0000,0.741
56.0400,0.753
56.0800,0.743
56.1200,0.775
56.1600,0.724
56.2000,0.764
56.2400,0.733
56.2800,0.716
56.3200,0.742
56.3600,0.737
56.4000,0.701
56.4400,0.743
56.4800,0.679
56.5200,0.681
56.5600,0.737
56.6000,0.739
56.6400,0.725
56.6800,0.754
56.7200,0.730
56.7600,0.724
56.8000,0.638
56.8400,0.681
56.8800,0.681
56.9200,0.708
56.9600,0.685
57.0000,0.674
57.0400,0.641
57.0800,0.667
57.1200,0.692
57.1600,0.655
57.2000,0.700
57.2400,0.705
57.2800,0.726
57.3200,0.700
57.3600,0.661
57.4000,0.713
57.4400,0.689
57.4800,0.661
57.5200,0.717
57.5600,0.684
57.6000,0.680
57.6400,0.692
57.6800,0.682
57.7200,0.632
57.7600,0.707
57.8000,0.735
57.8400,0.687
57.8800,0.698
57.9200,0.680
57.9600,0.647
58.0000,0.656
58.0400,0.690
58.0800,0.674
58.1200,0.696
58.1600,0.658
58.2000,0.671
58.2400,0.642
58.2800,0.665
58.3200,0.701
58.3600,0.656
58.4000,0.685
58.4400,0.672
58.4800,0.685
58.5200,0.724
58.5600,0.695
58.6000,0.671
58.6400,0.752
58.6800,0.738
58.7200,0.719
58.7600,0.685
58.8000,0.714
58.8400,0.716
58.8800,0.692
58.9200,0.713
58.9600,0.767
59.0000,0.694
59.0400,0.694
59.0800,0.728
59.1200,0.747
59.1600,0.741
59.2000,0.715
59.2400,0.715
59.2800,0.707
59.3200,0.704
59.3600,0.659
59.4000,0.705
59.4400,0.724
59.4800,0.722
59.5200,0.763
59.5600,0.702
59.6000,0.732
59.6400,0.739
59.6800,0.791
59.7200,0.704
59.7600,0.697
59.8000,0.722
59.8400,0.710
59.8800,0.757
59.9200,0.762
59.9600,0.752
60.0000,0.793
60.0400,0.770
60.0800,0.837
60.1200,0.803
60.1600,0.858
60.2000,0.855
60.2400,0.874
60.2800,0.910
60.3200,0.982
60.3600,0.953
60.4000,0.972
60.4400,0.999
60.4800,0.938
60.5200,1.006
60.5600,1.038
60.6000,1.026
60.6400,1.026
60.6800,1.097
60.7200,1.053
60.7600,1.030
60.8000,0.995
60.8400,0.986
60.8800,0.971
60.9200,0.891
60.9600,0.867
61.0000,0.886
61.0400,0.882
61.0800,0.890
61.1200,0.837
61.1600,0.773
61.2000,0.785
61.2400,0.735
61.2800,0.742
61.3200,0.757
61.3600,0.673
61.4000,0.713
61.4400,0.746
61.4800,0.694
61.5200,0.752
61.5600,0.734
61.6000,0.755
61.6400,0.811
61.6800,0.774
61.7200,0.710
61.7600,0.675
61.8000,0.625
61.8400,0.703
61.8800,0.687
61.9200,0.682
61.9600,0.687
62.0000,0.637
62.0400,0.691
62.0800,0.681
62.1200,0.688
62.1600,0.750
62.2000,0.676
62.2400,0.700
62.2800,0.650
62.3200,0.683
62.3600,0.704
62.4000,0.673
62.4400,0.700
62.4800,0.662
62.5200,0.647
62.5600,0.610
62.6000,0.686
62.6400,0.634
62.6800,0.673
62.7200,0.710
62.7600,0.640
62.8000,0.651
62.8400,0.602
62.8800,0.685
62.9200,0.661
62.9600,0.641
63.0000,0.646
63.0400,0.695
63.0800,0.691
63.1200,0.670
63.1600,0.721
63.2000,0.680
63.2400,0.676
63.2800,0.711
63.3200,0.686
63.3600,0.669
63.4000,0.713
63.4400,0.760
63.4800,0.729
63.5200,0.740
63.5600,0.698
63.6000,0.774
63.6400,0.811
63.6800,0.847
63.7200,0.841
63.7600,0.837
63.8000,0.841
63.8400,0.909
63.8800,0.785
63.9200,0.878
63.9600,0.876
64.0000,0.919
64.0400,0.974
64.0800,1.033
64.1200,1.076
64.1600,1.165
64.2000,1.275
64.2400,1.311
64.2800,1.464
64.3200,1.630
64.3600,1.926
64.4000,2.075
64.4400,2.129
64.4800,2.069
64.5200,1.901
64.5600,1.782
64.6000,1.814
64.6400,1.752
64.6800,1.461
64.7200,1.378
64.7600,1.272
64.8000,1.139
64.8400,1.130
64.8800,1.081
64.9200,1.070
64.9600,0.940
65.0000,0.944
65.0400,0.939
65.0800,0.818
65.1200,0.872
65.1600,0.853
65.2000,0.759
65.2400,0.774
65.2800,0.805
65.3200,0.787
65.3600,0.818
65.4000,0.801
65.4400,0.749
65.4800,0.784
65.5200,0.738
65.5600,0.710
65.6000,0.661
65.6400,0.743
65.6800,0.667
65.7200,0.658
65.7600,0.705
65.8000,0.731
65.8400,0.713
65.8800,0.741
65.9200,0.702
65.9600,0.747
66.0000,0.711
66.0400,0.696
66.0800,0.701
66.1200,0.685
66.1600,0.710
66.2000,0.702
66.2400,0.734
66.2800,0.769
66.3200,0.726
66.3600,0.753
66.4000,0.742
66.4400,0.781
66.4800,0.768
66.5200,0.745
66.5600,0.738
66.6000,0.788
66.6400,0.801
66.6800,0.797
66.7200,0.762
66.7600,0.743
66.8000,0.805
66.8400,0.823
66.8800,0.857
66.9200,0.828
66.9600,0.871
67.0000,0.872
67.0400,0.864
67.0800,0.832
67.1200,0.880
67.1600,0.867
67.2000,0.853
67.2400,0.909
67.2800,0.927
67.3200,0.914
67.3600,0.937
67.4000,0.990
67.4400,0.989
67.4800,0.991
67.5200,0.970
67.5600,1.029
67.6000,0.991
67.6400,1.059
67.6800,1.095
67.7200,1.128
67.7600,1.096
67.8000,1.132
67.8400,1.196
67.8800,1.315
67.9200,1.255
67.9600,1.264
68.0000,1.272
68.0400,1.298
68.0800,1.343
68.1200,1.383
68.1600,1.423
68.2000,1.459
68.2400,1.383
68.2800,1.497
68.3200,1.601
68.3600,1.624
68.4000,1.669
68.4400,1.768
68.4800,1.892
68.5200,1.892
68.5600,2.157
68.6000,2.204
68.6400,2.498
68.6800,2.984
68.7200,3.951
68.7600,4.775
68.8000,5.165
68.8400,5.335
68.8800,5.819
68.9200,7.225
68.9600,10.604
69.0000,18.270
69.0400,51.839
69.0800,221.678
69.1200,324.081
69.1600,154.831
69.2000,42.064
69.2400,42.422
69.2800,123.445
69.3200,163.019
69.3600,75.655
69.4000,20.300
69.4400,9.658
69.4800,6.641
69.5200,5.055
69.5600,4.219
69.6000,3.534
69.6400,3.166
69.6800,2.818
69.7200,2.612
69.7600,2.454
69.8000,2.232
69.8400,2.021
69.8800,1.945
69.9200,1.816
69.9600,1.815
70.0000,1.740
70.0400,1.683
70.0800,1.581
70.1200,1.595
70.1600,1.572
70.2000,1.525
70.2400,1.487
70.2800,1.425
70.3200,1.390
70.3600,1.332
70.4000,1.267
70.4400,1.197
70.4800,1.179
70.5200,1.194
70.5600,1.162
70.6000,1.166
70.6400,1.130
70.6800,1.106
70.7200,1.048
70.7600,1.036
70.8000,1.022
70.8400,0.978
70.8800,0.918
70.9200,0.960
70.9600,0.900
71.0000,0.845
71.0400,0.886
71.0800,0.873
71.1200,0.811
71.1600,0.796
71.2000,0.792
71.2400,0.816
71.2800,0.758
71.3200,0.805
71.3600,0.755
71.4000,0.714
71.4400,0.696
71.4800,0.767
71.5200,0.673
71.5600,0.696
71.6000,0.674
71.6400,0.672
71.6800,0.684
71.7200,0.679
71.7600,0.647
71.8000,0.646
71.8400,0.692
71.8800,0.581
71.9200,0.607
71.9600,0.668
72.0000,0.624
72.0400,0.597
72.0800,0.604
72.1200,0.604
72.1600,0.572
72.2000,0.556
72.2400,0.600
72.2800,0.522
72.3200,0.528
72.3600,0.519
72.4000,0.556
72.4400,0.543
72.4800,0.561
72.5200,0.545
72.5600,0.496
72.6000,0.516
72.6400,0.506
72.6800,0.530
72.7200,0.519
72.7600,0.526
72.8000,0.466
72.8400,0.498
72.8800,0.480
72.9200,0.532
72.9600,0.495
73.0000,0.488
73.0400,0.483
73.0800,0.503
73.1200,0.527
73.1600,0.494
73.2000,0.491
73.2400,0.520
73.2800,0.507
73.3200,0.495
73.3600,0.459
73.4000,0.482
73.4400,0.473
73.4800,0.501
73.5200,0.485
73.5600,0.506
73.6000,0.483
73.6400,0.454
73.6800,0.466
73.7200,0.446
73.7600,0.482
73.8000,0.476
73.8400,0.469
73.8800,0.438
73.9200,0.469
73.9600,0.477
74.0000,0.478
74.0400,0.405
74.0800,0.466
74.1200,0.460
74.1600,0.413
74.2000,0.450
74.2400,0.444
74.2800,0.471
74.3200,0.463
74.3600,0.422
74.4000,0.401
74.4400,0.457
74.4800,0.428
74.5200,0.427
74.5600,0.460
74.6000,0.442
74.6400,0.459
74.6800,0.434
74.7200,0.438
74.7600,0.426
74.8000,0.480
74.8400,0.479
74.8800,0.463
74.9200,0.452
74.9600,0.465
75.0000,0.472
75.0400,0.442
75.0800,0.415
75.1200,0.467
75.1600,0.483
75.2000,0.470
75.2400,0.451
75.2800,0.406
75.3200,0.440
75.3600,0.439
75.4000,0.461
75.4400,0.446
75.4800,0.450
75.5200,0.445
75.5600,0.464
75.6000,0.471
75.6400,0.420
75.6800,0.450
75.7200,0.446
75.7600,0.455
75.8000,0.475
75.8400,0.494
75.8800,0.474
75.9200,0.464
75.9600,0.452
76.0000,0.452
76.0400,0.459
76.0800,0.448
76.1200,0.478
76.1600,0.505
76.2000,0.485
76.2400,0.481
76.2800,0.472
76.3200,0.521
76.3600,0.550
76.4000,0.524
76.4400,0.508
76.4800,0.515
76.5200,0.551
76.5600,0.486
76.6000,0.509
76.6400,0.547
76.6800,0.563
76.7200,0.617
76.7600,0.604
76.8000,0.642
76.8400,0.649
76.8800,0.653
76.9200,0.698
76.9600,0.700
77.0000,0.758
77.0400,0.824
77.0800,0.898
77.1200,0.911
77.1600,1.048
77.2000,1.147
77.2400,1.271
77.2800,1.435
77.3200,1.594
77.3600,1.675
77.4000,1.764
77.4400,1.650
77.4800,1.474
77.5200,1.452
77.5600,1.443
77.6000,1.458
77.6400,1.246
77.6800,1.174
77.7200,1.022
77.7600,0.991
77.8000,0.884
77.8400,0.831
77.8800,0.786
77.9200,0.709
77.9600,0.709
78.0000,0.660
78.0400,0.605
78.0800,0.621
78.1200,0.585
78.1600,0.566
78.2000,0.518
78.2400,0.549
78.2800,0.478
78.3200,0.483
78.3600,0.512
78.4000,0.447
78.4400,0.480
78.4800,0.433
78.5200,0.433
78.5600,0.446
78.6000,0.487
78.6400,0.432
78.6800,0.431
78.7200,0.438
78.7600,0.445
78.8000,0.448
78.8400,0.426
78.8800,0.427
78.9200,0.444
78.9600,0.427
79.0000,0.420
79.0400,0.429
79.0800,0.473
79.1200,0.415
79.1600,0.423
79.2000,0.437
79.2400,0.480
79.2800,0.418
79.3200,0.435
79.3600,0.445
79.4000,0.447
79.4400,0.436
79.4800,0.412
79.5200,0.396
79.5600,0.400
79.6000,0.427
79.6400,0.369
79.6800,0.390
79.7200,0.362
79.7600,0.370
79.8000,0.360
79.8400,0.383
79.8800,0.359
79.9200,0.360
79.9600,0.340
80.0000,0.399
