theta,intensity
5.0000,6.874
5.0400,6.859
5.0800,6.674
5.1200,6.768
5.1600,6.544
5.2000,6.670
5.2400,6.443
5.2800,6.481
5.3200,6.397
5.3600,6.441
5.4000,6.221
5.4400,6.336
5.4800,6.328
5.5200,6.040
5.5600,6.118
5.6000,5.982
5.6400,5.896
5.6800,5.929
5.7200,5.756
5.7600,5.831
5.8000,5.630
5.8400,5.528
5.8800,5.636
5.9200,5.487
5.9600,5.349
6.0000,5.231
6.0400,5.266
6.0800,5.168
6.1200,5.022
6.1600,4.930
6.2000,4.794
6.2400,4.835
6.2800,4.728
6.3200,4.648
6.3600,4.603
6.4000,4.538
6.4400,4.461
6.4800,4.320
6.5200,4.332
6.5600,4.236
6.6000,4.284
6.6400,4.300
6.6800,4.231
6.7200,4.197
6.7600,4.223
6.8000,4.349
6.8400,4.199
6.8800,4.183
6.9200,4.137
6.9600,4.188
7.0000,4.216
7.0400,4.132
7.0800,4.108
7.1200,4.151
7.1600,4.134
7.2000,4.186
7.2400,4.228
7.2800,4.227
7.3200,4.101
7.3600,4.105
7.4000,4.222
7.4400,4.132
7.4800,4.088
7.5200,4.119
7.5600,4.162
7.6000,3.985
7.6400,4.114
7.6800,4.022
7.7200,3.972
7.7600,4.006
7.8000,3.954
7.8400,4.116
7.8800,3.952
7.9200,3.956
7.9600,3.853
8.0000,3.919
8.0400,3.965
8.0800,4.021
8.1200,4.000
8.1600,3.914
8.2000,4.034
8.2400,3.983
8.2800,4.027
8.3200,3.994
8.3600,3.946
8.4000,3.957
8.4400,3.867
8.4800,3.917
8.5200,3.987
8.5600,3.897
8.6000,3.791
8.6400,3.958
8.6800,3.866
8.7200,3.833
8.7600,3.825
8.8000,3.761
8.8400,3.917
8.8800,3.856
8.9200,3.831
8.9600,3.882
9.0000,3.866
9.0400,3.914
9.0800,3.836
9.1200,3.867
9.1600,3.822
9.2000,3.782
9.2400,3.813
9.2800,3.820
9.3200,3.760
9.3600,3.898
9.4000,3.814
9.4400,3.984
9.4800,3.825
9.5200,3.735
9.5600,3.831
9.6000,3.771
9.6400,3.815
9.6800,3.782
9.7200,3.782
9.7600,3.890
9.8000,3.767
9.8400,3.719
9.8800,3.720
9.9200,3.780
9.9600,3.801
10.0000,3.792
10.0400,3.737
10.0800,3.756
10.1200,3.683
10.1600,3.702
10.2000,3.762
10.2400,3.726
10.2800,3.652
10.3200,3.643
10.3600,3.757
10.4000,3.747
10.4400,3.778
10.4800,3.711
10.5200,3.700
10.5600,3.685
10.6000,3.678
10.6400,3.701
10.6800,3.561
10.7200,3.670
10.7600,3.767
10.8000,3.663
10.8400,3.660
10.8800,3.617
10.9200,3.725
10.9600,3.660
11.0000,3.628
11.0400,3.512
11.0800,3.615
11.1200,3.664
11.1600,3.572
11.2000,3.582
11.2400,3.553
11.2800,3.618
11.3200,3.615
11.3600,3.642
11.4000,3.635
11.4400,3.650
11.4800,3.510
11.5200,3.567
11.5600,3.594
11.6000,3.502
11.6400,3.609
11.6800,3.606
11.7200,3.619
11.7600,3.569
11.8000,3.619
11.8400,3.495
11.8800,3.505
11.9200,3.537
11.9600,3.585
12.0000,3.493
12.0400,3.495
12.0800,3.506
12.1200,3.592
12.1600,3.496
12.2000,3.553
12.2400,3.582
12.2800,3.610
12.3200,3.446
12.3600,3.521
12.4000,3.548
12.4400,3.499
12.4800,3.454
12.5200,3.454
12.5600,3.434
12.6000,3.425
12.6400,3.613
12.6800,3.409
12.7200,3.426
12.7600,3.511
12.8000,3.549
12.8400,3.323
12.8800,3.380
12.9200,3.441
12.9600,3.407
13.0000,3.456
13.0400,3.356
13.0800,3.451
13.1200,3.506
13.1600,3.373
13.2000,3.422
13.2400,3.445
13.2800,3.336
13.3200,3.396
13.3600,3.334
13.4000,3.364
13.4400,3.338
13.4800,3.378
13.5200,3.404
13.5600,3.401
13.6000,3.461
13.6400,3.366
13.6800,3.317
13.7200,3.228
13.7600,3.303
13.8000,3.304
13.8400,3.338
13.8800,3.246
13.9200,3.335
13.9600,3.312
14.0000,3.301
14.0400,3.309
14.0800,3.330
14.1200,3.374
14.1600,3.407
14.2000,3.318
14.2400,3.294
14.2800,3.225
14.3200,3.264
14.3600,3.281
14.4000,3.275
14.4400,3.365
14.4800,3.307
14.5200,3.366
14.5600,3.346
14.6000,3.254
14.6400,3.223
14.6800,3.308
14.7200,3.252
14.7600,3.273
14.8000,3.180
14.8400,3.367
14.8800,3.191
14.9200,3.225
14.9600,3.205
15.0000,3.244
15.0400,3.265
15.0800,3.233
15.1200,3.168
15.1600,3.172
15.2000,3.246
15.2400,3.209
15.2800,3.172
15.3200,3.193
15.3600,3.195
15.4000,3.236
15.4400,3.126
15.4800,3.159
15.5200,3.224
15.5600,3.070
15.6000,3.211
15.6400,3.238
15.6800,3.133
15.7200,3.208
15.7600,3.144
15.8000,3.157
15.8400,3.085
15.8800,3.107
15.9200,3.154
15.9600,3.133
16.0000,3.176
16.0400,3.161
16.0800,3.171
16.1200,3.046
16.1600,3.116
16.2000,3.126
16.2400,3.153
16.2800,3.141
16.3200,3.112
16.3600,3.168
16.4000,3.084
16.4400,3.115
16.4800,3.030
16.5200,3.112
16.5600,3.146
16.6000,2.964
16.6400,3.118
16.6800,3.093
16.7200,3.020
16.7600,3.074
16.8000,3.111
16.8400,3.045
16.8800,3.090
16.9200,3.065
16.9600,2.992
17.0000,2.901
17.0400,3.030
17.0800,2.849
17.1200,2.951
17.1600,2.994
17.2000,2.946
17.2400,2.935
17.2800,3.031
17.3200,2.985
17.3600,2.939
17.4000,2.952
17.4400,2.885
17.4800,3.016
17.5200,2.961
17.5600,3.006
17.6000,2.965
17.6400,2.984
17.6800,2.908
17.7200,3.011
17.7600,2.960
17.8000,2.898
17.8400,2.863
17.8800,3.002
17.9200,2.875
17.9600,2.935
18.0000,2.870
18.0400,2.903
18.0800,2.854
18.1200,2.896
18.1600,2.994
18.2000,2.893
18.2400,2.914
18.2800,2.950
18.3200,2.909
18.3600,2.921
18.4000,2.866
18.4400,2.915
18.4800,2.907
18.5200,2.784
18.5600,2.822
18.6000,2.863
18.6400,2.950
18.6800,2.873
18.7200,2.868
18.7600,2.860
18.8000,2.836
18.8400,2.928
18.8800,2.832
18.9200,2.764
18.9600,2.800
19.0000,2.792
19.0400,2.813
19.0800,2.878
19.1200,2.741
19.1600,2.927
19.2000,2.805
19.2400,2.767
19.2800,2.826
19.3200,2.802
19.3600,2.775
19.4000,2.809
19.4400,2.763
19.4800,2.820
19.5200,2.816
19.5600,2.814
19.6000,2.762
19.6400,2.771
19.6800,2.740
19.7200,2.683
19.7600,2.750
19.8000,2.779
19.8400,2.801
19.8800,2.683
19.9200,2.789
19.9600,2.728
20.0000,2.767
20.0400,2.740
20.0800,2.751
20.1200,2.736
20.1600,2.747
20.2000,2.637
20.2400,2.819
20.2800,2.732
20.3200,2.773
20.3600,2.692
20.4000,2.704
20.4400,2.711
20.4800,2.613
20.5200,2.749
20.5600,2.644
20.6000,2.618
20.6400,2.663
20.6800,2.557
20.7200,2.660
20.7600,2.575
20.8000,2.629
20.8400,2.731
20.8800,2.651
20.9200,2.633
20.9600,2.635
21.0000,2.648
21.0400,2.586
21.0800,2.661
21.1200,2.646
21.1600,2.608
21.2000,2.652
21.2400,2.582
21.2800,2.651
21.3200,2.668
21.3600,2.619
21.4000,2.638
21.4400,2.619
21.4800,2.635
21.5200,2.572
21.5600,2.667
21.6000,2.551
21.6400,2.583
21.6800,2.561
21.7200,2.567
21.7600,2.524
21.8000,2.576
21.8400,2.552
21.8800,2.514
21.9200,2.580
21.9600,2.619
22.0000,2.529
22.0400,2.552
22.0800,2.508
22.1200,2.548
22.1600,2.541
22.2000,2.567
22.2400,2.496
22.2800,2.445
22.3200,2.594
22.3600,2.556
22.4000,2.501
22.4400,2.548
22.4800,2.536
22.5200,2.474
22.5600,2.566
22.6000,2.499
22.6400,2.483
22.6800,2.494
22.7200,2.455
22.7600,2.428
22.8000,2.488
22.8400,2.461
22.8800,2.439
22.9200,2.506
22.9600,2.388
23.0000,2.406
23.0400,2.486
23.0800,2.431
23.1200,2.424
23.1600,2.401
23.2000,2.498
23.2400,2.455
23.2800,2.451
23.3200,2.456
23.3600,2.467
23.4000,2.437
23.4400,2.487
23.4800,2.458
23.5200,2.420
23.5600,2.473
23.6000,2.436
23.6400,2.389
23.6800,2.443
23.7200,2.406
23.7600,2.272
23.8000,2.386
23.8400,2.442
23.8800,2.296
23.9200,2.357
23.9600,2.388
24.0000,2.359
24.0400,2.348
24.0800,2.299
24.1200,2.312
24.1600,2.359
24.2000,2.374
24.2400,2.328
24.2800,2.331
24.3200,2.313
24.3600,2.332
24.4000,2.333
24.4400,2.314
24.4800,2.337
24.5200,2.354
24.5600,2.243
24.6000,2.307
24.6400,2.342
24.6800,2.290
24.7200,2.364
24.7600,2.232
24.8000,2.257
24.8400,2.266
24.8800,2.331
24.9200,2.285
24.9600,2.355
25.0000,2.271
25.0400,2.307
25.0800,2.289
25.1200,2.284
25.1600,2.306
25.2000,2.287
25.2400,2.311
25.2800,2.298
25.3200,2.264
25.3600,2.197
25.4000,2.206
25.4400,2.211
25.4800,2.293
25.5200,2.264
25.5600,2.235
25.6000,2.238
25.6400,2.165
25.6800,2.203
25.7200,2.267
25.7600,2.219
25.8000,2.179
25.8400,2.312
25.8800,2.152
25.9200,2.217
25.9600,2.179
26.0000,2.223
26.0400,2.229
26.0800,2.181
26.1200,2.087
26.1600,2.107
26.2000,2.097
26.2400,2.112
26.2800,2.178
26.3200,2.198
26.3600,2.180
26.4000,2.147
26.4400,2.065
26.4800,2.155
26.5200,2.138
26.5600,2.117
26.6000,2.152
26.6400,2.144
26.6800,2.113
26.7200,2.134
26.7600,2.136
26.8000,2.150
26.8400,2.028
26.8800,2.063
26.9200,2.082
26.9600,2.026
27.0000,2.100
27.0400,2.088
27.0800,2.125
27.1200,2.094
27.1600,2.046
27.2000,2.063
27.2400,2.092
27.2800,2.076
27.3200,2.100
27.3600,2.052
27.4000,2.160
27.4400,2.076
27.4800,2.097
27.5200,2.098
27.5600,2.000
27.6000,1.980
27.6400,2.135
27.6800,2.060
27.7200,2.019
27.7600,2.048
27.8000,2.034
27.8400,2.025
27.8800,2.042
27.9200,2.046
27.9600,2.040
28.0000,1.997
28.0400,2.008
28.0800,2.067
28.1200,2.013
28.1600,2.024
28.2000,2.006
28.2400,1.981
28.2800,1.997
28.3200,2.018
28.3600,1.932
28.4000,1.932
28.4400,1.942
28.4800,1.940
28.5200,1.925
28.5600,1.998
28.6000,1.917
28.6400,1.992
28.6800,1.973
28.7200,1.964
28.7600,1.924
28.8000,1.960
28.8400,1.942
28.8800,1.975
28.9200,1.910
28.9600,1.910
29.0000,1.938
29.0400,1.905
29.0800,1.972
29.1200,2.004
29.1600,1.890
29.2000,1.913
29.2400,1.938
29.2800,1.975
29.3200,1.879
29.3600,1.967
29.4000,1.901
29.4400,1.904
29.4800,1.896
29.5200,1.877
29.5600,1.975
29.6000,1.882
29.6400,1.935
29.6800,1.908
29.7200,1.898
29.7600,1.891
29.8000,1.897
29.8400,1.889
29.8800,1.836
29.9200,1.863
29.9600,1.882
30.0000,1.893
30.0400,1.938
30.0800,1.945
30.1200,1.853
30.1600,1.837
30.2000,1.857
30.2400,1.844
30.2800,1.822
30.3200,1.842
30.3600,1.861
30.4000,1.835
30.4400,1.815
30.4800,1.767
30.5200,1.840
30.5600,1.879
30.6000,1.794
30.6400,1.803
30.6800,1.892
30.7200,1.884
30.7600,1.828
30.8000,1.812
30.8400,1.849
30.8800,1.790
30.9200,1.795
30.9600,1.776
31.0000,1.814
31.0400,1.842
31.0800,1.790
31.1200,1.715
31.1600,1.813
31.2000,1.813
31.2400,1.713
31.2800,1.852
31.3200,1.812
31.3600,1.822
31.4000,1.850
31.4400,1.746
31.4800,1.738
31.5200,1.835
31.5600,1.938
31.6000,1.885
31.6400,1.837
31.6800,1.822
31.7200,1.889
31.7600,1.795
31.8000,1.832
31.8400,1.783
31.8800,1.784
31.9200,1.767
31.9600,1.751
32.0000,1.849
32.0400,1.870
32.0800,1.777
32.1200,1.737
32.1600,1.735
32.2000,1.784
32.2400,1.730
32.2800,1.772
32.3200,1.788
32.3600,1.792
32.4000,1.750
32.4400,1.736
32.4800,1.706
32.5200,1.684
32.5600,1.715
32.6000,1.601
32.6400,1.667
32.6800,1.712
32.7200,1.679
32.7600,1.688
32.8000,1.679
32.8400,1.770
32.8800,1.776
32.9200,3.540
32.9600,4.382
33.0000,2.526
33.0400,1.748
33.0800,1.766
33.1200,1.686
33.1600,1.713
33.2000,1.675
33.2400,1.670
33.2800,1.622
33.3200,1.671
33.3600,1.635
33.4000,1.663
33.4400,1.625
33.4800,1.671
33.5200,1.688
33.5600,1.642
33.6000,1.634
33.6400,1.641
33.6800,1.636
33.7200,1.637
33.7600,1.655
33.8000,1.685
33.8400,1.656
33.8800,1.577
33.9200,1.613
33.9600,1.654
34.0000,1.557
34.0400,1.589
34.0800,1.599
34.1200,1.622
34.1600,1.684
34.2000,1.616
34.2400,1.698
34.2800,1.652
34.3200,1.582
34.3600,1.604
34.4000,1.615
34.4400,1.557
34.4800,1.658
34.5200,1.576
34.5600,1.584
34.6000,1.620
34.6400,1.577
34.6800,1.622
34.7200,1.592
34.7600,1.621
34.8000,1.649
34.8400,1.612
34.8800,1.601
34.9200,1.563
34.9600,1.595
35.0000,1.573
35.0400,1.612
35.0800,1.625
35.1200,1.581
35.1600,1.543
35.2000,1.548
35.2400,1.584
35.2800,1.576
35.3200,1.602
35.3600,1.573
35.4000,1.574
35.4400,1.529
35.4800,1.533
35.5200,1.591
35.5600,1.556
35.6000,1.602
35.6400,1.663
35.6800,1.560
35.7200,1.567
35.7600,1.607
35.8000,1.624
35.8400,1.633
35.8800,1.611
35.9200,1.596
35.9600,1.647
36.0000,1.607
36.0400,1.644
36.0800,1.612
36.1200,1.680
36.1600,1.617
36.2000,1.621
36.2400,1.647
36.2800,1.641
36.3200,1.629
36.3600,1.651
36.4000,1.643
36.4400,1.641
36.4800,1.701
36.5200,1.619
36.5600,1.603
36.6000,1.676
36.6400,1.574
36.6800,1.642
36.7200,1.590
36.7600,1.651
36.8000,1.734
36.8400,1.671
36.8800,1.632
36.9200,1.604
36.9600,1.676
37.0000,1.607
37.0400,1.613
37.0800,1.643
37.1200,1.639
37.1600,1.663
37.2000,1.707
37.2400,1.757
37.2800,1.748
37.3200,1.689
37.3600,1.809
37.4000,1.912
37.4400,1.926
37.4800,1.895
37.5200,2.005
37.5600,1.979
37.6000,2.162
37.6400,2.299
37.6800,2.427
37.7200,2.454
37.7600,2.846
37.8000,2.984
37.8400,3.483
37.8800,4.166
37.9200,4.798
37.9600,6.305
38.0000,8.369
38.0400,10.806
38.0800,13.282
38.1200,14.400
38.1600,13.717
38.2000,11.999
38.2400,9.790
38.2800,7.716
38.3200,6.124
38.3600,4.886
38.4000,4.082
38.4400,3.514
38.4800,3.091
38.5200,2.815
38.5600,2.601
38.6000,2.450
38.6400,2.237
38.6800,2.121
38.7200,2.021
38.7600,1.943
38.8000,1.919
38.8400,1.862
38.8800,1.749
38.9200,1.735
38.9600,1.675
39.0000,1.708
39.0400,1.702
39.0800,1.641
39.1200,1.587
39.1600,1.588
39.2000,1.509
39.2400,1.497
39.2800,1.501
39.3200,1.480
39.3600,1.460
39.4000,1.531
39.4400,1.444
39.4800,1.472
39.5200,1.426
39.5600,1.458
39.6000,1.428
39.6400,1.351
39.6800,1.351
39.7200,1.394
39.7600,1.367
39.8000,1.354
39.8400,1.342
39.8800,1.349
39.9200,1.320
39.9600,1.359
40.0000,1.408
40.0400,1.424
40.0800,1.332
40.1200,1.314
40.1600,1.330
40.2000,1.320
40.2400,1.284
40.2800,1.265
40.3200,1.302
40.3600,1.357
40.4000,1.395
40.4400,1.347
40.4800,1.340
40.5200,1.324
40.5600,1.249
40.6000,1.323
40.6400,1.273
40.6800,1.318
40.7200,1.268
40.7600,1.332
40.8000,1.316
40.8400,1.312
40.8800,1.269
40.9200,1.314
40.9600,1.299
41.0000,1.318
41.0400,1.255
41.0800,1.275
41.1200,1.248
41.1600,1.231
41.2000,1.186
41.2400,1.273
41.2800,1.268
41.3200,1.222
41.3600,1.195
41.4000,1.223
41.4400,1.190
41.4800,1.227
41.5200,1.269
41.5600,1.293
41.6000,1.238
41.6400,1.278
41.6800,1.200
41.7200,1.206
41.7600,1.189
41.8000,1.164
41.8400,1.186
41.8800,1.254
41.9200,1.185
41.9600,1.198
42.0000,1.262
42.0400,1.223
42.0800,1.245
42.1200,1.196
42.1600,1.129
42.2000,1.193
42.2400,1.237
42.2800,1.200
42.3200,1.198
42.3600,1.223
42.4000,1.200
42.4400,1.157
42.4800,1.187
42.5200,1.252
42.5600,1.246
42.6000,1.212
42.6400,1.176
42.6800,1.208
42.7200,1.193
42.7600,1.225
42.8000,1.256
42.8400,1.210
42.8800,1.192
42.9200,1.225
42.9600,1.255
43.0000,1.268
43.0400,1.241
43.0800,1.197
43.1200,1.275
43.1600,1.229
43.2000,1.229
43.2400,1.294
43.2800,1.285
43.3200,1.283
43.3600,1.248
43.4000,1.288
43.4400,1.340
43.4800,1.367
43.5200,1.324
43.5600,1.317
43.6000,1.399
43.6400,1.414
43.6800,1.468
43.7200,1.388
43.7600,1.508
43.8000,1.604
43.8400,1.588
43.8800,1.655
43.9200,1.682
43.9600,1.872
44.0000,2.069
44.0400,2.194
44.0800,2.392
44.1200,2.539
44.1600,2.791
44.2000,3.061
44.2400,3.273
44.2800,3.494
44.3200,3.452
44.3600,3.618
44.4000,3.440
44.4400,3.089
44.4800,2.726
44.5200,2.525
44.5600,2.366
44.6000,2.093
44.6400,1.943
44.6800,1.837
44.7200,1.694
44.7600,1.632
44.8000,1.508
44.8400,1.396
44.8800,1.380
44.9200,1.369
44.9600,1.333
45.0000,1.277
45.0400,1.277
45.0800,1.213
45.1200,1.104
45.1600,1.125
45.2000,1.184
45.2400,1.113
45.2800,1.115
45.3200,1.065
45.3600,1.123
45.4000,1.015
45.4400,1.066
45.4800,1.056
45.5200,1.081
45.5600,1.033
45.6000,1.034
45.6400,1.014
45.6800,1.012
45.7200,0.999
45.7600,1.023
45.8000,1.022
45.8400,0.957
45.8800,1.009
45.9200,1.021
45.9600,0.991
46.0000,0.974
46.0400,0.968
46.0800,0.985
46.1200,0.989
46.1600,0.986
46.2000,0.963
46.2400,0.981
46.2800,0.986
46.3200,0.978
46.3600,1.025
46.4000,1.003
46.4400,0.933
46.4800,0.937
46.5200,0.953
46.5600,0.959
46.6000,0.928
46.6400,0.919
46.6800,0.990
46.7200,0.937
46.7600,0.930
46.8000,0.907
46.8400,0.913
46.8800,0.906
46.9200,0.928
46.9600,0.919
47.0000,0.940
47.0400,0.972
47.0800,0.899
47.1200,0.929
47.1600,0.917
47.2000,0.946
47.2400,0.926
47.2800,0.892
47.3200,0.885
47.3600,0.920
47.4000,0.949
47.4400,0.885
47.4800,0.894
47.5200,0.844
47.5600,0.877
47.6000,0.911
47.6400,0.938
47.6800,0.912
47.7200,0.892
47.7600,0.887
47.8000,0.904
47.8400,0.927
47.8800,0.915
47.9200,0.887
47.9600,0.858
48.0000,0.866
48.0400,0.832
48.0800,0.833
48.1200,0.838
48.1600,0.848
48.2000,0.857
48.2400,0.830
48.2800,0.836
48.3200,0.850
48.3600,0.854
48.4000,0.834
48.4400,0.865
48.4800,0.852
48.5200,0.844
48.5600,0.867
48.6000,0.855
48.6400,0.866
48.6800,0.812
48.7200,0.812
48.7600,0.872
48.8000,0.846
48.8400,0.828
48.8800,0.827
48.9200,0.832
48.9600,0.798
49.0000,0.850
49.0400,0.810
49.0800,0.805
49.1200,0.803
49.1600,0.856
49.2000,0.839
49.2400,0.819
49.2800,0.838
49.3200,0.807
49.3600,0.868
49.4000,0.872
49.4400,0.879
49.4800,0.828
49.5200,0.785
49.5600,0.829
49.6000,0.796
49.6400,0.785
49.6800,0.797
49.7200,0.795
49.7600,0.805
49.8000,0.839
49.8400,0.792
49.8800,0.777
49.9200,0.796
49.9600,0.779
50.0000,0.787
50.0400,0.811
50.0800,0.811
50.1200,0.787
50.1600,0.824
50.2000,0.771
50.2400,0.799
50.2800,0.818
50.3200,0.790
50.3600,0.819
50.4000,0.751
50.4400,0.744
50.4800,0.783
50.5200,0.822
50.5600,0.758
50.6000,0.757
50.6400,0.766
50.6800,0.791
50.7200,0.764
50.7600,0.738
50.8000,0.733
50.8400,0.805
50.8800,0.783
50.9200,0.733
50.9600,0.787
51.0000,0.714
51.0400,0.771
51.0800,0.746
51.1200,0.735
51.1600,0.814
51.2000,0.751
51.2400,0.784
51.2800,0.785
51.3200,0.799
51.3600,0.783
51.4000,0.735
51.4400,0.763
51.4800,0.798
51.5200,0.755
51.5600,0.713
51.6000,0.738
51.6400,0.719
51.6800,0.678
51.7200,0.717
51.7600,0.727
51.8000,0.752
51.8400,0.776
51.8800,0.719
51.9200,0.755
51.9600,0.753
52.0000,0.794
52.0400,0.736
52.0800,0.764
52.1200,0.742
52.1600,0.755
52.2000,0.692
52.2400,0.745
52.2800,0.753
52.3200,0.749
52.3600,0.752
52.4000,0.751
52.4400,0.729
52.4800,0.716
52.5200,0.672
52.5600,0.723
52.6000,0.744
52.6400,0.746
52.6800,0.739
52.7200,0.747
52.7600,0.693
52.8000,0.717
52.8400,0.706
52.8800,0.736
52.9200,0.723
52.9600,0.744
53.0000,0.714
53.0400,0.681
53.0800,0.739
53.1200,0.745
53.1600,0.715
53.2000,0.684
53.2400,0.662
53.2800,0.714
53.3200,0.700
53.3600,0.673
53.4000,0.707
53.4400,0.696
53.4800,0.704
53.5200,0.680
53.5600,0.734
53.6000,0.701
53.6400,0.701
53.6800,0.709
53.7200,0.754
53.7600,0.697
53.8000,0.688
53.8400,0.674
53.8800,0.733
53.9200,0.660
53.9600,0.690
54.0000,0.679
54.0400,0.681
54.0800,0.736
54.1200,0.740
54.1600,0.650
54.2000,0.626
54.2400,0.705
54.2800,0.698
54.3200,0.694
54.3600,0.716
54.4000,0.645
54.4400,0.644
54.4800,0.679
54.5200,0.649
54.5600,0.686
54.6000,0.685
54.6400,0.644
54.6800,0.690
54.7200,0.677
54.7600,0.663
54.8000,0.608
54.8400,0.649
54.8800,0.651
54.9200,0.632
54.9600,0.680
55.0000,0.686
55.0400,0.687
55.0800,0.657
55.1200,0.649
55.1600,0.703
55.2000,0.653
55.2400,0.648
55.2800,0.672
55.3200,0.701
55.3600,0.647
55.4000,0.603
55.4400,0.658
55.4800,0.692
55.5200,0.673
55.5600,0.615
55.6000,0.623
55.6400,0.657
55.6800,0.652
55.7200,0.686
55.7600,0.659
55.8000,0.625
55.8400,0.665
55.8800,0.677
55.9200,0.693
55.9600,0.684
56.0000,0.666
56.0400,0.655
56.0800,0.666
56.1200,0.637
56.1600,0.634
56.2000,0.644
56.2400,0.691
56.2800,0.698
56.3200,0.658
56.3600,0.701
56.4000,0.688
56.4400,0.646
56.4800,0.653
56.5200,0.690
56.5600,0.654
56.6000,0.727
56.6400,0.649
56.6800,0.673
56.7200,0.626
56.7600,0.623
56.8000,0.682
56.8400,0.637
56.8800,0.688
56.9200,0.693
56.9600,0.655
57.0000,0.620
57.0400,0.629
57.0800,0.628
57.1200,0.678
57.1600,0.675
57.2000,0.681
57.2400,0.640
57.2800,0.592
57.3200,0.619
57.3600,0.631
57.4000,0.613
57.4400,0.634
57.4800,0.641
57.5200,0.621
57.5600,0.613
57.6000,0.655
57.6400,0.623
57.6800,0.600
57.7200,0.615
57.7600,0.591
57.8000,0.632
57.8400,0.648
57.8800,0.608
57.9200,0.652
57.9600,0.613
58.0000,0.617
58.0400,0.624
58.0800,0.620
58.1200,0.659
58.1600,0.632
58.2000,0.614
58.2400,0.586
58.2800,0.608
58.3200,0.602
58.3600,0.608
58.4000,0.586
58.4400,0.577
58.4800,0.582
58.5200,0.590
58.5600,0.611
58.6000,0.641
58.6400,0.584
58.6800,0.575
58.7200,0.594
58.7600,0.594
58.8000,0.650
58.8400,0.551
58.8800,0.598
58.9200,0.597
58.9600,0.571
59.0000,0.620
59.0400,0.641
59.0800,0.578
59.1200,0.594
59.1600,0.573
59.2000,0.573
59.2400,0.586
59.2800,0.582
59.3200,0.593
59.3600,0.542
59.4000,0.612
59.4400,0.564
59.4800,0.574
59.5200,0.602
59.5600,0.582
59.6000,0.566
59.6400,0.602
59.6800,0.554
59.7200,0.571
59.7600,0.587
59.8000,0.562
59.8400,0.610
59.8800,0.567
59.9200,0.551
59.9600,0.545
60.0000,0.565
60.0400,0.564
60.0800,0.584
60.1200,0.529
60.1600,0.553
60.2000,0.551
60.2400,0.578
60.2800,0.579
60.3200,0.572
60.3600,0.579
60.4000,0.582
60.4400,0.650
60.4800,0.594
60.5200,0.575
60.5600,0.577
60.6000,0.590
60.6400,0.551
60.6800,0.590
60.7200,0.548
60.7600,0.589
60.8000,0.578
60.8400,0.558
60.8800,0.563
60.9200,0.589
60.9600,0.540
61.0000,0.520
61.0400,0.571
61.0800,0.576
61.1200,0.570
61.1600,0.556
61.2000,0.599
61.2400,0.611
61.2800,0.589
61.3200,0.573
61.3600,0.550
61.4000,0.576
61.4400,0.569
61.4800,0.560
61.5200,0.567
61.5600,0.613
61.6000,0.619
61.6400,0.686
61.6800,0.646
61.7200,0.606
61.7600,0.572
61.8000,0.534
61.8400,0.563
61.8800,0.534
61.9200,0.593
61.9600,0.605
62.0000,0.575
62.0400,0.538
62.0800,0.573
62.1200,0.551
62.1600,0.547
62.2000,0.570
62.2400,0.576
62.2800,0.596
62.3200,0.567
62.3600,0.581
62.4000,0.576
62.4400,0.528
62.4800,0.576
62.5200,0.565
62.5600,0.590
62.6000,0.564
62.6400,0.568
62.6800,0.558
62.7200,0.579
62.7600,0.578
62.8000,0.588
62.8400,0.541
62.8800,0.579
62.9200,0.596
62.9600,0.539
63.0000,0.577
63.0400,0.559
63.0800,0.594
63.1200,0.591
63.1600,0.565
63.2000,0.614
63.2400,0.579
63.2800,0.607
63.3200,0.611
63.3600,0.607
63.4000,0.575
63.4400,0.609
63.4800,0.638
63.5200,0.643
63.5600,0.598
63.6000,0.620
63.6400,0.649
63.6800,0.655
63.7200,0.641
63.7600,0.650
63.8000,0.656
63.8400,0.664
63.8800,0.716
63.9200,0.772
63.9600,0.746
64.0000,0.814
64.0400,0.784
64.0800,0.811
64.1200,0.885
64.1600,0.963
64.2000,1.079
64.2400,1.188
64.2800,1.255
64.3200,1.425
64.3600,1.605
64.4000,1.857
64.4400,1.944
64.4800,1.966
64.5200,1.916
64.5600,1.834
64.6000,1.801
64.6400,1.603
64.6800,1.571
64.7200,1.407
64.7600,1.229
64.8000,1.084
64.8400,1.036
64.8800,0.955
64.9200,0.925
64.9600,0.840
65.0000,0.816
65.0400,0.809
65.0800,0.781
65.1200,0.769
65.1600,0.774
65.2000,0.774
65.2400,0.759
65.2800,0.737
65.3200,0.757
65.3600,0.739
65.4000,0.747
65.4400,0.733
65.4800,0.701
65.5200,0.716
65.5600,0.713
65.6000,0.715
65.6400,0.731
65.6800,0.721
65.7200,0.755
65.7600,0.736
65.8000,0.704
65.8400,0.718
65.8800,0.749
65.9200,0.672
65.9600,0.740
66.0000,0.726
66.0400,0.670
66.0800,0.756
66.1200,0.775
66.1600,0.717
66.2000,0.760
66.2400,0.744
66.2800,0.764
66.3200,0.792
66.3600,0.799
66.4000,0.818
66.4400,0.831
66.4800,0.804
66.5200,0.848
66.5600,0.876
66.6000,0.880
66.6400,0.791
66.6800,0.802
66.7200,0.899
66.7600,0.903
66.8000,0.872
66.8400,0.918
66.8800,0.933
66.9200,0.953
66.9600,0.945
67.0000,0.980
67.0400,1.031
67.0800,1.014
67.1200,0.965
67.1600,0.987
67.2000,1.034
67.2400,1.043
67.2800,1.025
67.3200,1.060
67.3600,1.074
67.4000,1.158
67.4400,1.200
67.4800,1.168
67.5200,1.181
67.5600,1.215
67.6000,1.227
67.6400,1.296
67.6800,1.342
67.7200,1.311
67.7600,1.375
67.8000,1.404
67.8400,1.374
67.8800,1.416
67.9200,1.481
67.9600,1.488
68.0000,1.549
68.0400,1.507
68.0800,1.688
68.1200,1.656
68.1600,1.667
68.2000,1.741
68.2400,1.807
68.2800,1.840
68.3200,1.933
68.3600,2.092
68.4000,2.158
68.4400,2.256
68.4800,2.331
68.5200,2.472
68.5600,2.669
68.6000,2.778
68.6400,3.077
68.6800,3.647
68.7200,4.506
68.7600,5.796
68.8000,6.788
68.8400,6.734
68.8800,6.776
68.9200,7.893
68.9600,10.710
69.0000,18.140
69.0400,42.532
69.0800,206.138
69.1200,464.849
69.1600,322.716
69.2000,81.174
69.2400,44.719
69.2800,125.168
69.3200,238.315
69.3600,157.284
69.4000,40.898
69.4400,15.071
69.4800,9.398
69.5200,7.125
69.5600,5.779
69.6000,4.887
69.6400,4.286
69.6800,3.876
69.7200,3.499
69.7600,3.260
69.8000,2.976
69.8400,2.838
69.8800,2.728
69.9200,2.509
69.9600,2.358
70.0000,2.281
70.0400,2.242
70.0800,2.167
70.1200,2.049
70.1600,1.888
70.2000,1.928
70.2400,1.885
70.2800,1.736
70.3200,1.681
70.3600,1.630
70.4000,1.631
70.4400,1.600
70.4800,1.452
70.5200,1.471
70.5600,1.411
70.6000,1.344
70.6400,1.333
70.6800,1.272
70.7200,1.242
70.7600,1.285
70.8000,1.223
70.8400,1.227
70.8800,1.119
70.9200,1.127
70.9600,1.140
71.0000,1.097
71.0400,1.096
71.0800,1.041
71.1200,1.006
71.1600,0.952
71.2000,0.945
71.2400,0.946
71.2800,0.929
71.3200,0.946
71.3600,0.893
71.4000,0.863
71.4400,0.876
71.4800,0.862
71.5200,0.857
71.5600,0.811
71.6000,0.824
71.6400,0.832
71.6800,0.744
71.7200,0.741
71.7600,0.744
71.8000,0.700
71.8400,0.717
71.8800,0.733
71.9200,0.718
71.9600,0.669
72.0000,0.638
72.0400,0.639
72.0800,0.669
72.1200,0.643
72.1600,0.650
72.2000,0.608
72.2400,0.610
72.2800,0.622
72.3200,0.619
72.3600,0.598
72.4000,0.605
72.4400,0.562
72.4800,0.582
72.5200,0.591
72.5600,0.602
72.6000,0.594
72.6400,0.526
72.6800,0.556
72.7200,0.522
72.7600,0.576
72.8000,0.533
72.8400,0.533
72.8800,0.537
72.9200,0.556
72.9600,0.510
73.0000,0.492
73.0400,0.523
73.0800,0.583
73.1200,0.533
73.1600,0.467
73.2000,0.446
73.2400,0.488
73.2800,0.470
73.3200,0.474
73.3600,0.477
73.4000,0.453
73.4400,0.489
73.4800,0.490
73.5200,0.455
73.5600,0.472
73.6000,0.450
73.6400,0.444
73.6800,0.452
73.7200,0.437
73.7600,0.440
73.8000,0.454
73.8400,0.445
73.8800,0.475
73.9200,0.467
73.9600,0.413
74.0000,0.416
74.0400,0.433
74.0800,0.428
74.1200,0.433
74.1600,0.457
74.2000,0.433
74.2400,0.464
74.2800,0.437
74.3200,0.420
74.3600,0.416
74.4000,0.439
74.4400,0.421
74.4800,0.416
74.5200,0.418
74.5600,0.407
74.6000,0.427
74.6400,0.394
74.6800,0.414
74.7200,0.415
74.7600,0.409
74.8000,0.410
74.8400,0.402
74.8800,0.378
74.9200,0.413
74.9600,0.421
75.0000,0.395
75.0400,0.428
75.0800,0.358
75.1200,0.390
75.1600,0.392
75.2000,0.394
75.2400,0.407
75.2800,0.381
75.3200,0.395
75.3600,0.371
75.4000,0.413
75.4400,0.391
75.4800,0.390
75.5200,0.381
75.5600,0.394
75.6000,0.403
75.6400,0.388
75.6800,0.401
75.7200,0.370
75.7600,0.431
75.8000,0.362
75.8400,0.343
75.8800,0.393
75.9200,0.378
75.9600,0.401
76.0000,0.393
76.0400,0.388
76.0800,0.405
76.1200,0.367
76.1600,0.385
76.2000,0.367
76.2400,0.394
76.2800,0.392
76.3200,0.403
76.3600,0.400
76.4000,0.418
76.4400,0.407
76.4800,0.439
76.5200,0.401
76.5600,0.418
76.6000,0.453
76.6400,0.435
76.6800,0.447
76.7200,0.447
76.7600,0.431
76.8000,0.476
76.8400,0.491
76.8800,0.473
76.9200,0.563
76.9600,0.549
77.0000,0.561
77.0400,0.642
77.0800,0.642
77.1200,0.708
77.1600,0.785
77.2000,0.878
77.2400,0.986
77.2800,1.237
77.3200,1.331
77.3600,1.405
77.4000,1.510
77.4400,1.525
77.4800,1.461
77.5200,1.395
77.5600,1.289
77.6000,1.202
77.6400,1.152
77.6800,1.118
77.7200,1.015
77.7600,0.897
77.8000,0.796
77.8400,0.659
77.8800,0.650
77.9200,0.612
77.9600,0.523
78.0000,0.529
78.0400,0.499
78.0800,0.495
78.1200,0.487
78.1600,0.470
78.2000,0.442
78.2400,0.440
78.2800,0.402
78.3200,0.428
78.3600,0.442
78.4000,0.382
78.4400,0.387
78.4800,0.396
78.5200,0.366
78.5600,0.395
78.6000,0.364
78.6400,0.376
78.6800,0.379
78.7200,0.343
78.7600,0.353
78.8000,0.360
78.8400,0.354
78.8800,0.337
78.9200,0.351
78.9600,0.352
79.0000,0.349
79.0400,0.304
79.0800,0.283
79.1200,0.351
79.1600,0.299
79.2000,0.322
79.2400,0.351
79.2800,0.322
79.3200,0.321
79.3600,0.307
79.4000,0.341
79.4400,0.314
79.4800,0.307
79.5200,0.311
79.5600,0.321
79.6000,0.302
79.6400,0.305
79.6800,0.314
79.7200,0.322
79.7600,0.331
79.8000,0.321
79.8400,0.307
79.8800,0.307
79.9200,0.323
79.9600,0.335
80.0000,0.310
