theta,intensity
5.0000,6.508
5.0400,6.540
5.0800,6.405
5.1200,6.315
5.1600,6.635
5.2000,6.360
5.2400,6.220
5.2800,6.315
5.3200,6.326
5.3600,6.288
5.4000,6.203
5.4400,6.263
5.4800,6.038
5.5200,6.044
5.5600,5.896
5.6000,5.847
5.6400,5.927
5.6800,5.756
5.7200,5.799
5.7600,5.584
5.8000,5.542
5.8400,5.412
5.8800,5.390
5.9200,5.239
5.9600,5.053
6.0000,5.147
6.0400,5.121
6.0800,4.945
6.1200,4.811
6.1600,4.691
6.2000,4.743
6.2400,4.594
6.2800,4.510
6.3200,4.520
6.3600,4.587
6.4000,4.426
6.4400,4.311
6.4800,4.426
6.5200,4.505
6.5600,4.341
6.6000,4.261
6.6400,4.291
6.6800,4.249
6.7200,4.286
6.7600,4.181
6.8000,4.244
6.8400,4.120
6.8800,4.222
6.9200,4.140
6.9600,4.224
7.0000,4.154
7.0400,4.145
7.0800,4.109
7.1200,4.117
7.1600,4.136
7.2000,4.138
7.2400,4.048
7.2800,4.036
7.3200,4.020
7.3600,4.028
7.4000,4.064
7.4400,4.024
7.4800,4.061
7.5200,4.070
7.5600,4.022
7.6000,4.023
7.6400,3.989
7.6800,4.009
7.7200,3.963
7.7600,3.993
7.8000,3.955
7.8400,3.904
7.8800,3.942
7.9200,3.858
7.9600,3.921
8.0000,3.956
8.0400,3.984
8.0800,3.966
8.1200,3.795
8.1600,3.877
8.2000,3.930
8.2400,3.916
8.2800,3.771
8.3200,3.788
8.3600,3.869
8.4000,3.850
8.4400,3.897
8.4800,3.946
8.5200,3.797
8.5600,3.854
8.6000,3.896
8.6400,3.813
8.6800,3.814
8.7200,3.835
8.7600,3.792
8.8000,3.786
8.8400,3.848
8.8800,3.732
8.9200,3.924
8.9600,3.815
9.0000,3.737
9.0400,3.735
9.0800,3.758
9.1200,3.702
9.1600,3.682
9.2000,3.690
9.2400,3.770
9.2800,3.747
9.3200,3.738
9.3600,3.747
9.4000,3.736
9.4400,3.607
9.4800,3.714
9.5200,3.619
9.5600,3.739
9.6000,3.822
9.6400,3.685
9.6800,3.722
9.7200,3.682
9.7600,3.683
9.8000,3.724
9.8400,3.659
9.8800,3.675
9.9200,3.595
9.9600,3.654
10.0000,3.654
10.0400,3.587
10.0800,3.767
10.1200,3.493
10.1600,3.704
10.2000,3.686
10.2400,3.659
10.2800,3.480
10.3200,3.641
10.3600,3.664
10.4000,3.576
10.4400,3.584
10.4800,3.617
10.5200,3.619
10.5600,3.666
10.6000,3.621
10.6400,3.689
10.6800,3.552
10.7200,3.620
10.7600,3.628
10.8000,3.593
10.8400,3.633
10.8800,3.525
10.9200,3.546
10.9600,3.513
11.0000,3.639
11.0400,3.594
11.0800,3.547
11.1200,3.553
11.1600,3.498
11.2000,3.560
11.2400,3.651
11.2800,3.638
11.3200,3.437
11.3600,3.431
11.4000,3.507
11.4400,3.487
11.4800,3.553
11.5200,3.482
11.5600,3.529
11.6000,3.512
11.6400,3.486
11.6800,3.536
11.7200,3.515
11.7600,3.509
11.8000,3.525
11.8400,3.447
11.8800,3.493
11.9200,3.473
11.9600,3.450
12.0000,3.422
12.0400,3.420
12.0800,3.500
12.1200,3.506
12.1600,3.426
12.2000,3.464
12.2400,3.455
12.2800,3.360
12.3200,3.449
12.3600,3.468
12.4000,3.362
12.4400,3.384
12.4800,3.368
12.5200,3.432
12.5600,3.401
12.6000,3.390
12.6400,3.282
12.6800,3.444
12.7200,3.308
12.7600,3.332
12.8000,3.386
12.8400,3.363
12.8800,3.334
12.9200,3.414
12.9600,3.380
13.0000,3.296
13.0400,3.357
13.0800,3.317
13.1200,3.353
13.1600,3.315
13.2000,3.350
13.2400,3.363
13.2800,3.347
13.3200,3.328
13.3600,3.305
13.4000,3.219
13.4400,3.278
13.4800,3.309
13.5200,3.306
13.5600,3.269
13.6000,3.154
13.6400,3.247
13.6800,3.301
13.7200,3.217
13.7600,3.388
13.8000,3.452
13.8400,3.260
13.8800,3.268
13.9200,3.326
13.9600,3.289
14.0000,3.101
14.0400,3.264
14.0800,3.262
14.1200,3.222
14.1600,3.164
14.2000,3.200
14.2400,3.167
14.2800,3.282
14.3200,3.201
14.3600,3.275
14.4000,3.195
14.4400,3.207
14.4800,3.068
14.5200,3.219
14.5600,3.258
14.6000,3.191
14.6400,3.243
14.6800,3.203
14.7200,3.145
14.7600,3.237
14.8000,3.162
14.8400,3.163
14.8800,3.125
14.9200,3.182
14.9600,3.106
15.0000,3.165
15.0400,3.140
15.0800,3.241
15.1200,3.160
15.1600,3.031
15.2000,3.161
15.2400,3.168
15.2800,3.092
15.3200,3.118
15.3600,3.167
15.4000,3.193
15.4400,3.119
15.4800,3.172
15.5200,3.077
15.5600,3.038
15.6000,2.992
15.6400,3.034
15.6800,3.034
15.7200,3.199
15.7600,3.073
15.8000,3.075
15.8400,2.994
15.8800,2.986
15.9200,2.974
15.9600,3.064
16.0000,2.982
16.0400,3.078
16.0800,3.078
16.1200,2.979
16.1600,3.015
16.2000,2.961
16.2400,3.115
16.2800,3.091
16.3200,3.059
16.3600,3.008
16.4000,3.068
16.4400,2.966
16.4800,2.997
16.5200,2.940
16.5600,3.072
16.6000,2.989
16.6400,2.943
16.6800,2.937
16.7200,3.013
16.7600,2.993
16.8000,3.025
16.8400,2.974
16.8800,3.038
16.9200,2.988
16.9600,2.993
17.0000,2.985
17.0400,2.969
17.0800,2.907
17.1200,2.966
17.1600,2.896
17.2000,2.939
17.2400,2.894
17.2800,2.987
17.3200,2.936
17.3600,2.964
17.4000,2.874
17.4400,2.898
17.4800,3.003
17.5200,3.017
17.5600,2.882
17.6000,2.828
17.6400,2.804
17.6800,2.848
17.7200,2.889
17.7600,2.860
17.8000,2.915
17.8400,2.925
17.8800,2.933
17.9200,2.923
17.9600,2.850
18.0000,2.888
18.0400,2.942
18.0800,2.805
18.1200,2.884
18.1600,2.792
18.2000,2.862
18.2400,2.864
18.2800,2.875
18.3200,2.855
18.3600,2.874
18.4000,2.781
18.4400,2.869
18.4800,2.731
18.5200,2.811
18.5600,2.777
18.6000,2.852
18.6400,2.875
18.6800,2.708
18.7200,2.798
18.7600,2.857
18.8000,2.801
18.8400,2.742
18.8800,2.808
18.9200,2.753
18.9600,2.714
19.0000,2.773
19.0400,2.805
19.0800,2.829
19.1200,2.784
19.1600,2.835
19.2000,2.748
19.2400,2.730
19.2800,2.779
19.3200,2.771
19.3600,2.699
19.4000,2.765
19.4400,2.730
19.4800,2.771
19.5200,2.694
19.5600,2.608
19.6000,2.650
19.6400,2.675
19.6800,2.812
19.7200,2.732
19.7600,2.692
19.8000,2.723
19.8400,2.756
19.8800,2.783
19.9200,2.698
19.9600,2.626
20.0000,2.777
20.0400,2.790
20.0800,2.575
20.1200,2.697
20.1600,2.789
20.2000,2.708
20.2400,2.594
20.2800,2.632
20.3200,2.704
20.3600,2.695
20.4000,2.657
20.4400,2.591
20.4800,2.641
20.5200,2.636
20.5600,2.594
20.6000,2.586
20.6400,2.612
20.6800,2.598
20.7200,2.677
20.7600,2.527
20.8000,2.501
20.8400,2.532
20.8800,2.557
20.9200,2.489
20.9600,2.579
21.0000,2.582
21.0400,2.591
21.0800,2.516
21.1200,2.516
21.1600,2.567
21.2000,2.563
21.2400,2.538
21.2800,2.554
21.3200,2.567
21.3600,2.555
21.4000,2.583
21.4400,2.584
21.4800,2.567
21.5200,2.590
21.5600,2.543
21.6000,2.484
21.6400,2.543
21.6800,2.502
21.7200,2.513
21.7600,2.583
21.8000,2.560
21.8400,2.516
21.8800,2.547
21.9200,2.589
21.9600,2.533
22.0000,2.416
22.0400,2.469
22.0800,2.558
22.1200,2.511
22.1600,2.504
22.2000,2.486
22.2400,2.459
22.2800,2.472
22.3200,2.522
22.3600,2.456
22.4000,2.441
22.4400,2.481
22.4800,2.429
22.5200,2.484
22.5600,2.421
22.6000,2.485
22.6400,2.432
22.6800,2.435
22.7200,2.466
22.7600,2.410
22.8000,2.485
22.8400,2.558
22.8800,2.348
22.9200,2.449
22.9600,2.454
23.0000,2.475
23.0400,2.482
23.0800,2.501
23.1200,2.485
23.1600,2.410
23.2000,2.369
23.2400,2.425
23.2800,2.377
23.3200,2.310
23.3600,2.422
23.4000,2.394
23.4400,2.383
23.4800,2.414
23.5200,2.351
23.5600,2.379
23.6000,2.394
23.6400,2.364
23.6800,2.306
23.7200,2.301
23.7600,2.355
23.8000,2.393
23.8400,2.403
23.8800,2.384
23.9200,2.281
23.9600,2.282
24.0000,2.391
24.0400,2.329
24.0800,2.401
24.1200,2.335
24.1600,2.336
24.2000,2.311
24.2400,2.288
24.2800,2.334
24.3200,2.361
24.3600,2.280
24.4000,2.334
24.4400,2.204
24.4800,2.308
24.5200,2.261
24.5600,2.237
24.6000,2.342
24.6400,2.264
24.6800,2.316
24.7200,2.291
24.7600,2.279
24.8000,2.313
24.8400,2.253
24.8800,2.264
24.9200,2.296
24.9600,2.260
25.0000,2.207
25.0400,2.264
25.0800,2.336
25.1200,2.261
25.1600,2.243
25.2000,2.311
25.2400,2.235
25.2800,2.173
25.3200,2.246
25.3600,2.250
25.4000,2.252
25.4400,2.216
25.4800,2.230
25.5200,2.308
25.5600,2.316
25.6000,2.160
25.6400,2.224
25.6800,2.244
25.7200,2.224
25.7600,2.181
25.8000,2.200
25.8400,2.234
25.8800,2.178
25.9200,2.230
25.9600,2.109
26.0000,2.157
26.0400,2.218
26.0800,2.143
26.1200,2.133
26.1600,2.187
26.2000,2.199
26.2400,2.196
26.2800,2.143
26.3200,2.163
26.3600,2.070
26.4000,2.120
26.4400,2.111
26.4800,2.130
26.5200,2.051
26.5600,2.146
26.6000,2.145
26.6400,2.124
26.6800,2.161
26.7200,2.014
26.7600,2.036
26.8000,2.068
26.8400,2.053
26.8800,2.095
26.9200,2.065
26.9600,2.099
27.0000,2.067
27.0400,2.154
27.0800,2.111
27.1200,2.075
27.1600,2.076
27.2000,2.036
27.2400,2.090
27.2800,2.092
27.3200,2.169
27.3600,2.086
27.4000,2.123
27.4400,2.098
27.4800,2.031
27.5200,2.096
27.5600,1.991
27.6000,2.057
27.6400,2.031
27.6800,2.021
27.7200,2.010
27.7600,2.053
27.8000,2.149
27.8400,2.050
27.8800,2.067
27.9200,2.081
27.9600,2.046
28.0000,2.017
28.0400,2.006
28.0800,1.953
28.1200,2.018
28.1600,2.051
28.2000,2.079
28.2400,1.998
28.2800,1.932
28.3200,1.972
28.3600,2.018
28.4000,2.033
28.4400,2.012
28.4800,2.010
28.5200,1.981
28.5600,1.972
28.6000,1.936
28.6400,1.984
28.6800,1.977
28.7200,1.863
28.7600,1.924
28.8000,1.910
28.8400,1.927
28.8800,2.000
28.9200,1.871
28.9600,1.943
29.0000,2.003
29.0400,1.901
29.0800,2.002
29.1200,1.948
29.1600,1.924
29.2000,1.942
29.2400,1.886
29.2800,1.918
29.3200,1.972
29.3600,1.895
29.4000,1.963
29.4400,1.989
29.4800,1.941
29.5200,1.950
29.5600,1.910
29.6000,1.890
29.6400,1.850
29.6800,1.910
29.7200,1.856
29.7600,1.843
29.8000,1.850
29.8400,1.825
29.8800,1.853
29.9200,1.904
29.9600,1.940
30.0000,1.946
30.0400,1.846
30.0800,1.850
30.1200,1.854
30.1600,1.893
30.2000,1.921
30.2400,1.846
30.2800,1.833
30.3200,1.918
30.3600,1.861
30.4000,1.851
30.4400,1.868
30.4800,1.787
30.5200,1.826
30.5600,1.829
30.6000,1.888
30.6400,1.818
30.6800,1.816
30.7200,1.798
30.7600,1.760
30.8000,1.747
30.8400,1.826
30.8800,1.824
30.9200,1.806
30.9600,1.821
31.0000,1.769
31.0400,1.823
31.0800,1.832
31.1200,1.802
31.1600,1.799
31.2000,1.857
31.2400,1.783
31.2800,1.708
31.3200,1.770
31.3600,1.816
31.4000,1.737
31.4400,1.771
31.4800,1.799
31.5200,1.775
31.5600,1.788
31.6000,1.770
31.6400,1.710
31.6800,1.778
31.7200,1.786
31.7600,1.729
31.8000,1.781
31.8400,1.695
31.8800,1.722
31.9200,1.792
31.9600,1.747
32.0000,1.725
32.0400,1.731
32.0800,1.709
32.1200,1.726
32.1600,1.757
32.2000,1.703
32.2400,1.726
32.2800,1.739
32.3200,1.765
32.3600,1.700
32.4000,1.718
32.4400,1.701
32.4800,1.715
32.5200,1.670
32.5600,1.684
32.6000,1.731
32.6400,1.739
32.6800,1.666
32.7200,1.707
32.7600,1.696
32.8000,1.634
32.8400,1.671
32.8800,1.706
32.9200,1.666
32.9600,1.673
33.0000,2.109
33.0400,3.329
33.0800,2.736
33.1200,1.764
33.1600,1.692
33.2000,1.693
33.2400,1.700
33.2800,1.629
33.3200,1.705
33.3600,1.678
33.4000,1.645
33.4400,1.638
33.4800,1.704
33.5200,1.658
33.5600,1.608
33.6000,1.629
33.6400,1.593
33.6800,1.631
33.7200,1.649
33.7600,1.606
33.8000,1.598
33.8400,1.624
33.8800,1.625
33.9200,1.660
33.9600,1.592
34.0000,1.563
34.0400,1.533
34.0800,1.607
34.1200,1.593
34.1600,1.613
34.2000,1.597
34.2400,1.633
34.2800,1.664
34.3200,1.612
34.3600,1.579
34.4000,1.562
34.4400,1.561
34.4800,1.555
34.5200,1.598
34.5600,1.646
34.6000,1.553
34.6400,1.533
34.6800,1.521
34.7200,1.598
34.7600,1.569
34.8000,1.527
34.8400,1.592
34.8800,1.571
34.9200,1.580
34.9600,1.581
35.0000,1.540
35.0400,1.501
35.0800,1.556
35.1200,1.459
35.1600,1.530
35.2000,1.585
35.2400,1.574
35.2800,1.597
35.3200,1.642
35.3600,1.589
35.4000,1.547
35.4400,1.586
35.4800,1.598
35.5200,1.495
35.5600,1.521
35.6000,1.542
35.6400,1.498
35.6800,1.535
35.7200,1.535
35.7600,1.593
35.8000,1.487
35.8400,1.562
35.8800,1.530
35.9200,1.500
35.9600,1.583
36.0000,1.611
36.0400,1.587
36.0800,1.638
36.1200,1.522
36.1600,1.551
36.2000,1.601
36.2400,1.553
36.2800,1.519
36.3200,1.526
36.3600,1.602
36.4000,1.573
36.4400,1.602
36.4800,1.567
36.5200,1.592
36.5600,1.581
36.6000,1.529
36.6400,1.646
36.6800,1.630
36.7200,1.572
36.7600,1.622
36.8000,1.612
36.8400,1.614
36.8800,1.602
36.9200,1.667
36.9600,1.635
37.0000,1.564
37.0400,1.660
37.0800,1.694
37.1200,1.668
37.1600,1.755
37.2000,1.765
37.2400,1.710
37.2800,1.841
37.3200,1.817
37.3600,1.831
37.4000,1.819
37.4400,1.949
37.4800,2.022
37.5200,2.035
37.5600,2.063
37.6000,2.262
37.6400,2.312
37.6800,2.495
37.7200,2.558
37.7600,2.746
37.8000,3.056
37.8400,3.284
37.8800,3.648
37.9200,4.308
37.9600,4.903
38.0000,5.585
38.0400,6.711
38.0800,7.840
38.1200,9.370
38.1600,10.513
38.2000,11.280
38.2400,11.261
38.2800,10.506
38.3200,9.539
38.3600,8.466
38.4000,7.163
38.4400,6.129
38.4800,5.172
38.5200,4.562
38.5600,3.887
38.6000,3.547
38.6400,3.187
38.6800,2.927
38.7200,2.632
38.7600,2.572
38.8000,2.444
38.8400,2.263
38.8800,2.164
38.9200,2.004
38.9600,1.948
39.0000,1.927
39.0400,1.890
39.0800,1.789
39.1200,1.747
39.1600,1.746
39.2000,1.701
39.2400,1.646
39.2800,1.677
39.3200,1.689
39.3600,1.635
39.4000,1.548
39.4400,1.635
39.4800,1.545
39.5200,1.499
39.5600,1.528
39.6000,1.460
39.6400,1.473
39.6800,1.387
39.7200,1.406
39.7600,1.447
39.8000,1.427
39.8400,1.383
39.8800,1.388
39.9200,1.404
39.9600,1.422
40.0000,1.419
40.0400,1.427
40.0800,1.365
40.1200,1.341
40.1600,1.290
40.2000,1.380
40.2400,1.339
40.2800,1.351
40.3200,1.342
40.3600,1.343
40.4000,1.376
40.4400,1.332
40.4800,1.251
40.5200,1.412
40.5600,1.424
40.6000,1.312
40.6400,1.260
40.6800,1.265
40.7200,1.249
40.7600,1.279
40.8000,1.282
40.8400,1.288
40.8800,1.211
40.9200,1.245
40.9600,1.309
41.0000,1.283
41.0400,1.219
41.0800,1.233
41.1200,1.256
41.1600,1.267
41.2000,1.209
41.2400,1.246
41.2800,1.263
41.3200,1.214
41.3600,1.227
41.4000,1.210
41.4400,1.208
41.4800,1.201
41.5200,1.231
41.5600,1.225
41.6000,1.206
41.6400,1.225
41.6800,1.251
41.7200,1.223
41.7600,1.233
41.8000,1.253
41.8400,1.194
41.8800,1.186
41.9200,1.221
41.9600,1.196
42.0000,1.254
42.0400,1.277
42.0800,1.219
42.1200,1.245
42.1600,1.174
42.2000,1.167
42.2400,1.212
42.2800,1.209
42.3200,1.172
42.3600,1.181
42.4000,1.218
42.4400,1.248
42.4800,1.191
42.5200,1.225
42.5600,1.203
42.6000,1.222
42.6400,1.207
42.6800,1.187
42.7200,1.218
42.7600,1.208
42.8000,1.198
42.8400,1.230
42.8800,1.182
42.9200,1.283
42.9600,1.233
43.0000,1.234
43.0400,1.281
43.0800,1.264
43.1200,1.215
43.1600,1.178
43.2000,1.263
43.2400,1.219
43.2800,1.297
43.3200,1.287
43.3600,1.280
43.4000,1.278
43.4400,1.316
43.4800,1.308
43.5200,1.306
43.5600,1.350
43.6000,1.337
43.6400,1.416
43.6800,1.391
43.7200,1.425
43.7600,1.567
43.8000,1.568
43.8400,1.672
43.8800,1.684
43.9200,1.656
43.9600,1.743
44.0000,1.782
44.0400,1.898
44.0800,2.104
44.1200,2.236
44.1600,2.397
44.2000,2.457
44.2400,2.579
44.2800,2.773
44.3200,2.904
44.3600,3.050
44.4000,3.203
44.4400,3.177
44.4800,3.165
44.5200,3.062
44.5600,2.945
44.6000,2.798
44.6400,2.579
44.6800,2.384
44.7200,2.206
44.7600,2.128
44.8000,1.933
44.8400,1.926
44.8800,1.692
44.9200,1.611
44.9600,1.592
45.0000,1.482
45.0400,1.406
45.0800,1.454
45.1200,1.449
45.1600,1.288
45.2000,1.293
45.2400,1.283
45.2800,1.190
45.3200,1.142
45.3600,1.174
45.4000,1.193
45.4400,1.154
45.4800,1.123
45.5200,1.104
45.5600,1.126
45.6000,1.061
45.6400,1.129
45.6800,1.086
45.7200,1.002
45.7600,1.035
45.8000,1.007
45.8400,0.987
45.8800,1.030
45.9200,1.035
45.9600,1.047
46.0000,1.036
46.0400,0.992
46.0800,0.978
46.1200,1.035
46.1600,0.939
46.2000,0.966
46.2400,1.002
46.2800,1.006
46.3200,0.971
46.3600,0.964
46.4000,0.957
46.4400,0.930
46.4800,0.963
46.5200,0.935
46.5600,0.969
46.6000,0.917
46.6400,0.906
46.6800,0.924
46.7200,0.925
46.7600,0.947
46.8000,0.969
46.8400,1.044
46.8800,0.946
46.9200,0.881
46.9600,0.929
47.0000,0.891
47.0400,0.908
47.0800,0.942
47.1200,0.931
47.1600,0.888
47.2000,0.835
47.2400,0.916
47.2800,0.927
47.3200,0.913
47.3600,0.872
47.4000,0.901
47.4400,0.888
47.4800,0.897
47.5200,0.873
47.5600,0.850
47.6000,0.882
47.6400,0.900
47.6800,0.803
47.7200,0.869
47.7600,0.832
47.8000,0.854
47.8400,0.910
47.8800,0.860
47.9200,0.878
47.9600,0.892
48.0000,0.897
48.0400,0.890
48.0800,0.843
48.1200,0.884
48.1600,0.868
48.2000,0.925
48.2400,0.885
48.2800,0.853
48.3200,0.834
48.3600,0.815
48.4000,0.818
48.4400,0.872
48.4800,0.830
48.5200,0.820
48.5600,0.805
48.6000,0.848
48.6400,0.778
48.6800,0.839
48.7200,0.813
48.7600,0.844
48.8000,0.882
48.8400,0.850
48.8800,0.841
48.9200,0.787
48.9600,0.830
49.0000,0.835
49.0400,0.834
49.0800,0.815
49.1200,0.795
49.1600,0.835
49.2000,0.832
49.2400,0.824
49.2800,0.791
49.3200,0.800
49.3600,0.823
49.4000,0.797
49.4400,0.801
49.4800,0.849
49.5200,0.839
49.5600,0.845
49.6000,0.842
49.6400,0.847
49.6800,0.745
49.7200,0.805
49.7600,0.851
49.8000,0.829
49.8400,0.781
49.8800,0.781
49.9200,0.813
49.9600,0.810
50.0000,0.819
50.0400,0.772
50.0800,0.749
50.1200,0.770
50.1600,0.773
50.2000,0.811
50.2400,0.779
50.2800,0.805
50.3200,0.742
50.3600,0.765
50.4000,0.811
50.4400,0.794
50.4800,0.838
50.5200,0.779
50.5600,0.776
50.6000,0.773
50.6400,0.782
50.6800,0.745
50.7200,0.772
50.7600,0.723
50.8000,0.751
50.8400,0.769
50.8800,0.711
50.9200,0.704
50.9600,0.782
51.0000,0.762
51.0400,0.745
51.0800,0.770
51.1200,0.734
51.1600,0.782
51.2000,0.741
51.2400,0.737
51.2800,0.729
51.3200,0.775
51.3600,0.731
51.4000,0.759
51.4400,0.769
51.4800,0.774
51.5200,0.776
51.5600,0.706
51.6000,0.776
51.6400,0.770
51.6800,0.764
51.7200,0.727
51.7600,0.758
51.8000,0.760
51.8400,0.763
51.8800,0.797
51.9200,0.724
51.9600,0.729
52.0000,0.740
52.0400,0.726
52.0800,0.742
52.1200,0.688
52.1600,0.680
52.2000,0.698
52.2400,0.683
52.2800,0.710
52.3200,0.721
52.3600,0.708
52.4000,0.714
52.4400,0.713
52.4800,0.725
52.5200,0.729
52.5600,0.777
52.6000,0.701
52.6400,0.760
52.6800,0.727
52.7200,0.701
52.7600,0.706
52.8000,0.698
52.8400,0.742
52.8800,0.742
52.9200,0.683
52.9600,0.712
53.0000,0.713
53.0400,0.701
53.0800,0.745
53.1200,0.714
53.1600,0.723
53.2000,0.666
53.2400,0.676
53.2800,0.732
53.3200,0.672
53.3600,0.693
53.4000,0.694
53.4400,0.708
53.4800,0.740
53.5200,0.682
53.5600,0.701
53.6000,0.718
53.6400,0.688
53.6800,0.672
53.7200,0.685
53.7600,0.675
53.8000,0.703
53.8400,0.697
53.8800,0.676
53.9200,0.724
53.9600,0.697
54.0000,0.691
54.0400,0.696
54.0800,0.684
54.1200,0.668
54.1600,0.734
54.2000,0.705
54.2400,0.726
54.2800,0.681
54.3200,0.715
54.3600,0.646
54.4000,0.653
54.4400,0.613
54.4800,0.682
54.5200,0.648
54.5600,0.684
54.6000,0.670
54.6400,0.681
54.6800,0.678
54.7200,0.675
54.7600,0.702
54.8000,0.644
54.8400,0.677
54.8800,0.672
54.9200,0.669
54.9600,0.652
55.0000,0.686
55.0400,0.706
55.0800,0.587
55.1200,0.674
55.1600,0.689
55.2000,0.639
55.2400,0.626
55.2800,0.586
55.3200,0.626
55.3600,0.663
55.4000,0.677
55.4400,0.653
55.4800,0.707
55.5200,0.619
55.5600,0.650
55.6000,0.643
55.6400,0.681
55.6800,0.676
55.7200,0.628
55.7600,0.679
55.8000,0.624
55.8400,0.627
55.8800,0.644
55.9200,0.625
55.9600,0.650
56.0000,0.627
56.0400,0.667
56.0800,0.663
56.1200,0.621
56.1600,0.596
56.2000,0.630
56.2400,0.606
56.2800,0.628
56.3200,0.605
56.3600,0.682
56.4000,0.635
56.4400,0.608
56.4800,0.626
56.5200,0.630
56.5600,0.639
56.6000,0.659
56.6400,0.660
56.6800,0.626
56.7200,0.658
56.7600,0.656
56.8000,0.659
56.8400,0.670
56.8800,0.646
56.9200,0.632
56.9600,0.633
57.0000,0.644
57.0400,0.650
57.0800,0.603
57.1200,0.637
57.1600,0.648
57.2000,0.660
57.2400,0.670
57.2800,0.658
57.3200,0.669
57.3600,0.622
57.4000,0.634
57.4400,0.650
57.4800,0.621
57.5200,0.621
57.5600,0.628
57.6000,0.643
57.6400,0.608
57.6800,0.645
57.7200,0.594
57.7600,0.646
57.8000,0.636
57.8400,0.612
57.8800,0.631
57.9200,0.634
57.9600,0.610
58.0000,0.629
58.0400,0.637
58.0800,0.608
58.1200,0.589
58.1600,0.614
58.2000,0.663
58.2400,0.586
58.2800,0.611
58.3200,0.585
58.3600,0.615
58.4000,0.591
58.4400,0.620
58.4800,0.600
58.5200,0.601
58.5600,0.580
58.6000,0.642
58.6400,0.598
58.6800,0.591
58.7200,0.619
58.7600,0.596
58.8000,0.569
58.8400,0.591
58.8800,0.586
58.9200,0.610
58.9600,0.622
59.0000,0.578
59.0400,0.622
59.0800,0.602
59.1200,0.593
59.1600,0.610
59.2000,0.619
59.2400,0.584
59.2800,0.603
59.3200,0.626
59.3600,0.583
59.4000,0.589
59.4400,0.578
59.4800,0.564
59.5200,0.580
59.5600,0.540
59.6000,0.605
59.6400,0.620
59.6800,0.618
59.7200,0.551
59.7600,0.608
59.8000,0.596
59.8400,0.604
59.8800,0.585
59.9200,0.633
59.9600,0.574
60.0000,0.575
60.0400,0.599
60.0800,0.576
60.1200,0.582
60.1600,0.620
60.2000,0.594
60.2400,0.629
60.2800,0.608
60.3200,0.565
60.3600,0.576
60.4000,0.593
60.4400,0.581
60.4800,0.583
60.5200,0.569
60.5600,0.587
60.6000,0.586
60.6400,0.553
60.6800,0.578
60.7200,0.614
60.7600,0.600
60.8000,0.566
60.8400,0.555
60.8800,0.569
60.9200,0.589
60.9600,0.561
61.0000,0.538
61.0400,0.603
61.0800,0.586
61.1200,0.580
61.1600,0.589
61.2000,0.571
61.2400,0.577
61.2800,0.584
61.3200,0.559
61.3600,0.567
61.4000,0.598
61.4400,0.584
61.4800,0.541
61.5200,0.544
61.5600,0.608
61.6000,0.572
61.6400,0.628
61.6800,0.666
61.7200,0.593
61.7600,0.563
61.8000,0.585
61.8400,0.569
61.8800,0.565
61.9200,0.557
61.9600,0.547
62.0000,0.529
62.0400,0.620
62.0800,0.562
62.1200,0.555
62.1600,0.566
62.2000,0.540
62.2400,0.550
62.2800,0.599
62.3200,0.559
62.3600,0.580
62.4000,0.525
62.4400,0.567
62.4800,0.533
62.5200,0.539
62.5600,0.555
62.6000,0.581
62.6400,0.562
62.6800,0.573
62.7200,0.557
62.7600,0.574
62.8000,0.570
62.8400,0.559
62.8800,0.569
62.9200,0.588
62.9600,0.608
63.0000,0.590
63.0400,0.611
63.0800,0.602
63.1200,0.556
63.1600,0.617
63.2000,0.610
63.2400,0.648
63.2800,0.570
63.3200,0.600
63.3600,0.596
63.4000,0.602
63.4400,0.600
63.4800,0.617
63.5200,0.617
63.5600,0.603
63.6000,0.656
63.6400,0.657
63.6800,0.640
63.7200,0.627
63.7600,0.625
63.8000,0.679
63.8400,0.664
63.8800,0.721
63.9200,0.717
63.9600,0.708
64.0000,0.767
64.0400,0.751
64.0800,0.816
64.1200,0.820
64.1600,0.849
64.2000,0.928
64.2400,0.923
64.2800,0.979
64.3200,1.073
64.3600,1.094
64.4000,1.200
64.4400,1.279
64.4800,1.382
64.5200,1.435
64.5600,1.615
64.6000,1.623
64.6400,1.662
64.6800,1.686
64.7200,1.695
64.7600,1.625
64.8000,1.532
64.8400,1.420
64.8800,1.356
64.9200,1.195
64.9600,1.251
65.0000,1.129
65.0400,1.020
65.0800,1.029
65.1200,0.971
65.1600,0.903
65.2000,0.886
65.2400,0.881
65.2800,0.878
65.3200,0.832
65.3600,0.849
65.4000,0.783
65.4400,0.750
65.4800,0.751
65.5200,0.774
65.5600,0.740
65.6000,0.776
65.6400,0.753
65.6800,0.752
65.7200,0.791
65.7600,0.728
65.8000,0.741
65.8400,0.738
65.8800,0.752
65.9200,0.781
65.9600,0.723
66.0000,0.821
66.0400,0.772
66.0800,0.764
66.1200,0.748
66.1600,0.740
66.2000,0.792
66.2400,0.808
66.2800,0.838
66.3200,0.790
66.3600,0.769
66.4000,0.829
66.4400,0.821
66.4800,0.887
66.5200,0.910
66.5600,0.850
66.6000,0.870
66.6400,0.889
66.6800,0.875
66.7200,0.956
66.7600,0.912
66.8000,0.932
66.8400,1.010
66.8800,1.045
66.9200,0.940
66.9600,0.952
67.0000,1.009
67.0400,1.028
67.0800,1.029
67.1200,1.078
67.1600,1.094
67.2000,1.114
67.2400,1.059
67.2800,1.100
67.3200,1.129
67.3600,1.100
67.4000,1.167
67.4400,1.200
67.4800,1.302
67.5200,1.288
67.5600,1.294
67.6000,1.375
67.6400,1.353
67.6800,1.359
67.7200,1.382
67.7600,1.410
67.8000,1.477
67.8400,1.485
67.8800,1.602
67.9200,1.525
67.9600,1.631
68.0000,1.574
68.0400,1.618
68.0800,1.716
68.1200,1.750
68.1600,1.807
68.2000,1.894
68.2400,1.959
68.2800,1.902
68.3200,2.027
68.3600,2.165
68.4000,2.233
68.4400,2.314
68.4800,2.421
68.5200,2.582
68.5600,2.748
68.6000,2.977
68.6400,3.258
68.6800,3.750
68.7200,4.899
68.7600,6.053
68.8000,7.260
68.8400,7.611
68.8800,7.925
68.9200,9.043
68.9600,12.001
69.0000,19.076
69.0400,38.980
69.0800,166.912
69.1200,487.010
69.1600,423.549
69.2000,126.539
69.2400,51.354
69.2800,110.299
69.3200,258.044
69.3600,209.459
69.4000,63.749
69.4400,20.759
69.4800,12.113
69.5200,8.568
69.5600,7.027
69.6000,5.770
69.6400,4.923
69.6800,4.381
69.7200,3.987
69.7600,3.687
69.8000,3.356
69.8400,3.111
69.8800,3.000
69.9200,2.789
69.9600,2.698
70.0000,2.516
70.0400,2.407
70.0800,2.375
70.1200,2.219
70.1600,2.170
70.2000,2.110
70.2400,2.053
70.2800,1.944
70.3200,1.901
70.3600,1.790
70.4000,1.760
70.4400,1.732
70.4800,1.695
70.5200,1.621
70.5600,1.557
70.6000,1.534
70.6400,1.459
70.6800,1.443
70.7200,1.353
70.7600,1.355
70.8000,1.349
70.8400,1.247
70.8800,1.282
70.9200,1.260
70.9600,1.279
71.0000,1.165
71.0400,1.180
71.0800,1.114
71.1200,1.049
71.1600,1.036
71.2000,1.051
71.2400,1.055
71.2800,1.037
71.3200,0.955
71.3600,0.911
71.4000,0.971
71.4400,0.973
71.4800,0.929
71.5200,0.866
71.5600,0.893
71.6000,0.871
71.6400,0.788
71.6800,0.828
71.7200,0.838
71.7600,0.793
71.8000,0.756
71.8400,0.762
71.8800,0.723
71.9200,0.754
71.9600,0.704
72.0000,0.718
72.0400,0.687
72.0800,0.706
72.1200,0.709
72.1600,0.688
72.2000,0.653
72.2400,0.642
72.2800,0.656
72.3200,0.651
72.3600,0.609
72.4000,0.605
72.4400,0.625
72.4800,0.588
72.5200,0.595
72.5600,0.580
72.6000,0.611
72.6400,0.608
72.6800,0.552
72.7200,0.548
72.7600,0.581
72.8000,0.569
72.8400,0.534
72.8800,0.585
72.9200,0.514
72.9600,0.525
73.0000,0.517
73.0400,0.543
73.0800,0.525
73.1200,0.493
73.1600,0.558
73.2000,0.522
73.2400,0.569
73.2800,0.510
73.3200,0.528
73.3600,0.498
73.4000,0.480
73.4400,0.452
73.4800,0.486
73.5200,0.458
73.5600,0.499
73.6000,0.469
73.6400,0.464
73.6800,0.472
73.7200,0.487
73.7600,0.472
73.8000,0.444
73.8400,0.441
73.8800,0.463
73.9200,0.477
73.9600,0.414
74.0000,0.458
74.0400,0.471
74.0800,0.455
74.1200,0.450
74.1600,0.468
74.2000,0.432
74.2400,0.452
74.2800,0.396
74.3200,0.446
74.3600,0.415
74.4000,0.419
74.4400,0.412
74.4800,0.428
74.5200,0.424
74.5600,0.431
74.6000,0.454
74.6400,0.422
74.6800,0.404
74.7200,0.432
74.7600,0.451
74.8000,0.392
74.8400,0.416
74.8800,0.440
74.9200,0.398
74.9600,0.426
75.0000,0.422
75.0400,0.420
75.0800,0.413
75.1200,0.385
75.1600,0.397
75.2000,0.421
75.2400,0.384
75.2800,0.415
75.3200,0.361
75.3600,0.370
75.4000,0.402
75.4400,0.371
75.4800,0.385
75.5200,0.377
75.5600,0.379
75.6000,0.399
75.6400,0.390
75.6800,0.369
75.7200,0.379
75.7600,0.387
75.8000,0.341
75.8400,0.371
75.8800,0.408
75.9200,0.365
75.9600,0.396
76.0000,0.428
76.0400,0.397
76.0800,0.378
76.1200,0.377
76.1600,0.391
76.2000,0.413
76.2400,0.402
76.2800,0.403
76.3200,0.404
76.3600,0.411
76.4000,0.424
76.4400,0.422
76.4800,0.398
76.5200,0.418
76.5600,0.396
76.6000,0.433
76.6400,0.471
76.6800,0.472
76.7200,0.472
76.7600,0.441
76.8000,0.489
76.8400,0.443
76.8800,0.484
76.9200,0.492
76.9600,0.561
77.0000,0.533
77.0400,0.545
77.0800,0.553
77.1200,0.597
77.1600,0.630
77.2000,0.658
77.2400,0.688
77.2800,0.719
77.3200,0.813
77.3600,0.868
77.4000,0.865
77.4400,0.965
77.4800,1.052
77.5200,1.149
77.5600,1.214
77.6000,1.252
77.6400,1.305
77.6800,1.278
77.7200,1.267
77.7600,1.182
77.8000,1.179
77.8400,1.163
77.8800,1.059
77.9200,1.056
77.9600,0.925
78.0000,0.867
78.0400,0.824
78.0800,0.715
78.1200,0.689
78.1600,0.657
78.2000,0.615
78.2400,0.570
78.2800,0.573
78.3200,0.518
78.3600,0.521
78.4000,0.505
78.4400,0.467
78.4800,0.445
78.5200,0.478
78.5600,0.454
78.6000,0.450
78.6400,0.395
78.6800,0.419
78.7200,0.399
78.7600,0.384
78.8000,0.386
78.8400,0.388
78.8800,0.374
78.9200,0.400
78.9600,0.362
79.0000,0.331
79.0400,0.375
79.0800,0.346
79.1200,0.355
79.1600,0.347
79.2000,0.337
79.2400,0.368
79.2800,0.361
79.3200,0.350
79.3600,0.333
79.4000,0.318
79.4400,0.349
79.4800,0.370
79.5200,0.354
79.5600,0.332
79.6000,0.330
79.6400,0.318
79.6800,0.324
79.7200,0.311
79.7600,0.316
79.8000,0.313
79.8400,0.314
79.8800,0.321
79.9200,0.327
79.9600,0.336
80.0000,0.328
