theta,intensity
5.0000,4.139
5.0400,4.154
5.0800,4.175
5.1200,4.205
5.1600,4.188
5.2000,4.190
5.2400,4.218
5.2800,3.982
5.3200,4.234
5.3600,4.231
5.4000,4.203
5.4400,4.059
5.4800,4.114
5.5200,4.117
5.5600,4.003
5.6000,4.049
5.6400,3.986
5.6800,4.162
5.7200,4.049
5.7600,4.030
5.8000,4.019
5.8400,4.000
5.8800,3.991
5.9200,3.954
5.9600,3.995
6.0000,4.008
6.0400,3.947
6.0800,3.884
6.1200,3.894
6.1600,3.851
6.2000,3.803
6.2400,3.898
6.2800,3.810
6.3200,3.917
6.3600,3.759
6.4000,3.807
6.4400,3.760
6.4800,3.744
6.5200,3.780
6.5600,3.777
6.6000,3.814
6.6400,3.827
6.6800,3.772
6.7200,3.794
6.7600,3.708
6.8000,3.770
6.8400,3.707
6.8800,3.822
6.9200,3.724
6.9600,3.649
7.0000,3.729
7.0400,3.658
7.0800,3.853
7.1200,3.736
7.1600,3.674
7.2000,3.773
7.2400,3.682
7.2800,3.703
7.3200,3.709
7.3600,3.611
7.4000,3.590
7.4400,3.739
7.4800,3.661
7.5200,3.695
7.5600,3.731
7.6000,3.703
7.6400,3.666
7.6800,3.654
7.7200,3.648
7.7600,3.694
7.8000,3.674
7.8400,3.636
7.8800,3.635
7.9200,3.615
7.9600,3.608
8.0000,3.599
8.0400,3.640
8.0800,3.563
8.1200,3.587
8.1600,3.501
8.2000,3.621
8.2400,3.565
8.2800,3.647
8.3200,3.532
8.3600,3.670
8.4000,3.660
8.4400,3.600
8.4800,3.502
8.5200,3.564
8.5600,3.645
8.6000,3.591
8.6400,3.603
8.6800,3.558
8.7200,3.569
8.7600,3.635
8.8000,3.479
8.8400,3.547
8.8800,3.513
8.9200,3.570
8.9600,3.552
9.0000,3.400
9.0400,3.413
9.0800,3.552
9.1200,3.587
9.1600,3.492
9.2000,3.428
9.2400,3.477
9.2800,3.479
9.3200,3.586
9.3600,3.459
9.4000,3.520
9.4400,3.482
9.4800,3.540
9.5200,3.477
9.5600,3.426
9.6000,3.548
9.6400,3.476
9.6800,3.439
9.7200,3.484
9.7600,3.416
9.8000,3.400
9.8400,3.437
9.8800,3.438
9.9200,3.475
9.9600,3.325
10.0000,3.308
10.0400,3.414
10.0800,3.432
10.1200,3.439
10.1600,3.461
10.2000,3.348
10.2400,3.493
10.2800,3.570
10.3200,3.354
10.3600,3.328
10.4000,3.276
10.4400,3.341
10.4800,3.351
10.5200,3.386
10.5600,3.342
10.6000,3.416
10.6400,3.302
10.6800,3.272
10.7200,3.360
10.7600,3.302
10.8000,3.230
10.8400,3.392
10.8800,3.374
10.9200,3.371
10.9600,3.294
11.0000,3.308
11.0400,3.293
11.0800,3.293
11.1200,3.235
11.1600,3.283
11.2000,3.314
11.2400,3.463
11.2800,3.282
11.3200,3.283
11.3600,3.258
11.4000,3.318
11.4400,3.315
11.4800,3.280
11.5200,3.342
11.5600,3.352
11.6000,3.314
11.6400,3.343
11.6800,3.264
11.7200,3.294
11.7600,3.322
11.8000,3.285
11.8400,3.335
11.8800,3.345
11.9200,3.269
11.9600,3.238
12.0000,3.301
12.0400,3.198
12.0800,3.275
12.1200,3.224
12.1600,3.210
12.2000,3.218
12.2400,3.154
12.2800,3.295
12.3200,3.223
12.3600,3.238
12.4000,3.291
12.4400,3.259
12.4800,3.186
12.5200,3.105
12.5600,3.369
12.6000,3.211
12.6400,3.186
12.6800,3.186
12.7200,3.138
12.7600,3.131
12.8000,3.219
12.8400,3.238
12.8800,3.144
12.9200,3.195
12.9600,3.192
13.0000,3.213
13.0400,3.203
13.0800,3.176
13.1200,3.163
13.1600,3.227
13.2000,3.154
13.2400,3.110
13.2800,3.150
13.3200,3.141
13.3600,3.181
13.4000,3.052
13.4400,3.113
13.4800,3.076
13.5200,3.108
13.5600,3.082
13.6000,3.146
13.6400,3.114
13.6800,3.132
13.7200,3.127
13.7600,3.049
13.8000,3.102
13.8400,3.028
13.8800,3.132
13.9200,3.120
13.9600,3.034
14.0000,3.117
14.0400,3.109
14.0800,3.033
14.1200,3.132
14.1600,3.074
14.2000,3.191
14.2400,2.999
14.2800,3.104
14.3200,3.051
14.3600,3.002
14.4000,3.022
14.4400,3.000
14.4800,2.981
14.5200,3.044
14.5600,2.971
14.6000,3.115
14.6400,3.070
14.6800,2.986
14.7200,3.037
14.7600,3.069
14.8000,3.024
14.8400,3.019
14.8800,3.062
14.9200,2.997
14.9600,3.066
15.0000,3.048
15.0400,2.995
15.0800,3.048
15.1200,3.023
15.1600,3.000
15.2000,2.990
15.2400,3.107
15.2800,3.045
15.3200,2.996
15.3600,3.059
15.4000,3.103
15.4400,3.015
15.4800,2.928
15.5200,2.924
15.5600,2.936
15.6000,2.926
15.6400,2.898
15.6800,2.903
15.7200,2.980
15.7600,2.956
15.8000,2.905
15.8400,2.889
15.8800,2.917
15.9200,2.842
15.9600,2.948
16.0000,3.003
16.0400,2.956
16.0800,2.862
16.1200,2.922
16.1600,2.918
16.2000,2.883
16.2400,2.911
16.2800,2.928
16.3200,2.927
16.3600,2.890
16.4000,2.946
16.4400,2.901
16.4800,2.961
16.5200,2.911
16.5600,2.901
16.6000,2.873
16.6400,2.970
16.6800,2.860
16.7200,2.882
16.7600,2.883
16.8000,2.833
16.8400,2.865
16.8800,2.882
16.9200,2.963
16.9600,2.779
17.0000,2.837
17.0400,2.818
17.0800,2.865
17.1200,2.814
17.1600,2.732
17.2000,2.765
17.2400,2.838
17.2800,2.824
17.3200,2.762
17.3600,2.797
17.4000,2.751
17.4400,2.796
17.4800,2.823
17.5200,2.819
17.5600,2.809
17.6000,2.777
17.6400,2.775
17.6800,2.813
17.7200,2.742
17.7600,2.699
17.8000,2.699
17.8400,2.798
17.8800,2.806
17.9200,2.687
17.9600,2.734
18.0000,2.730
18.0400,2.745
18.0800,2.745
18.1200,2.691
18.1600,2.658
18.2000,2.671
18.2400,2.800
18.2800,2.745
18.3200,2.683
18.3600,2.720
18.4000,2.718
18.4400,2.698
18.4800,2.703
18.5200,2.672
18.5600,2.712
18.6000,2.691
18.6400,2.730
18.6800,2.737
18.7200,2.697
18.7600,2.714
18.8000,2.676
18.8400,2.692
18.8800,2.663
18.9200,2.726
18.9600,2.719
19.0000,2.660
19.0400,2.660
19.0800,2.645
19.1200,2.696
19.1600,2.581
19.2000,2.610
19.2400,2.749
19.2800,2.667
19.3200,2.623
19.3600,2.754
19.4000,2.740
19.4400,2.612
19.4800,2.623
19.5200,2.628
19.5600,2.745
19.6000,2.696
19.6400,2.605
19.6800,2.596
19.7200,2.562
19.7600,2.646
19.8000,2.608
19.8400,2.624
19.8800,2.541
19.9200,2.478
19.9600,2.543
20.0000,2.565
20.0400,2.514
20.0800,2.510
20.1200,2.559
20.1600,2.632
20.2000,2.532
20.2400,2.552
20.2800,2.602
20.3200,2.531
20.3600,2.598
20.4000,2.532
20.4400,2.527
20.4800,2.559
20.5200,2.472
20.5600,2.572
20.6000,2.433
20.6400,2.532
20.6800,2.553
20.7200,2.478
20.7600,2.488
20.8000,2.511
20.8400,2.437
20.8800,2.536
20.9200,2.540
20.9600,2.556
21.0000,2.518
21.0400,2.522
21.0800,2.518
21.1200,2.480
21.1600,2.536
21.2000,2.448
21.2400,2.526
21.2800,2.477
21.3200,2.486
21.3600,2.460
21.4000,2.416
21.4400,2.500
21.4800,2.435
21.5200,2.441
21.5600,2.533
21.6000,2.368
21.6400,2.463
21.6800,2.440
21.7200,2.464
21.7600,2.414
21.8000,2.454
21.8400,2.458
21.8800,2.365
21.9200,2.406
21.9600,2.356
22.0000,2.432
22.0400,2.431
22.0800,2.446
22.1200,2.392
22.1600,2.272
22.2000,2.344
22.2400,2.328
22.2800,2.334
22.3200,2.371
22.3600,2.478
22.4000,2.404
22.4400,2.399
22.4800,2.338
22.5200,2.331
22.5600,2.400
22.6000,2.373
22.6400,2.311
22.6800,2.308
22.7200,2.317
22.7600,2.330
22.8000,2.386
22.8400,2.366
22.8800,2.255
22.9200,2.325
22.9600,2.344
23.0000,2.413
23.0400,2.270
23.0800,2.243
23.1200,2.281
23.1600,2.316
23.2000,2.341
23.2400,2.341
23.2800,2.358
23.3200,2.355
23.3600,2.262
23.4000,2.234
23.4400,2.259
23.4800,2.220
23.5200,2.262
23.5600,2.205
23.6000,2.255
23.6400,2.208
23.6800,2.297
23.7200,2.337
23.7600,2.343
23.8000,2.251
23.8400,2.233
23.8800,2.256
23.9200,2.205
23.9600,2.233
24.0000,2.269
24.0400,2.261
24.0800,2.204
24.1200,2.317
24.1600,2.256
24.2000,2.199
24.2400,2.230
24.2800,2.240
24.3200,2.239
24.3600,2.223
24.4000,2.287
24.4400,2.253
24.4800,2.172
24.5200,2.265
24.5600,2.235
24.6000,2.178
24.6400,2.184
24.6800,2.163
24.7200,2.181
24.7600,2.135
24.8000,2.226
24.8400,2.143
24.8800,2.094
24.9200,2.192
24.9600,2.192
25.0000,2.112
25.0400,2.189
25.0800,2.154
25.1200,2.223
25.1600,2.120
25.2000,2.238
25.2400,2.148
25.2800,2.107
25.3200,2.142
25.3600,2.106
25.4000,2.077
25.4400,2.167
25.4800,2.113
25.5200,2.131
25.5600,2.101
25.6000,2.018
25.6400,2.113
25.6800,2.102
25.7200,2.099
25.7600,2.109
25.8000,2.052
25.8400,2.093
25.8800,2.113
25.9200,1.990
25.9600,2.039
26.0000,2.155
26.0400,2.095
26.0800,2.114
26.1200,2.084
26.1600,2.018
26.2000,2.064
26.2400,2.057
26.2800,2.071
26.3200,2.127
26.3600,2.116
26.4000,2.019
26.4400,2.061
26.4800,1.999
26.5200,2.001
26.5600,2.026
26.6000,2.068
26.6400,2.044
26.6800,2.009
26.7200,2.009
26.7600,2.016
26.8000,2.010
26.8400,2.010
26.8800,1.937
26.9200,2.047
26.9600,1.912
27.0000,1.952
27.0400,2.020
27.0800,1.972
27.1200,1.923
27.1600,2.000
27.2000,1.940
27.2400,1.935
27.2800,1.980
27.3200,1.958
27.3600,1.921
27.4000,1.971
27.4400,1.980
27.4800,1.955
27.5200,1.887
27.5600,1.920
27.6000,1.987
27.6400,1.944
27.6800,1.921
27.7200,1.893
27.7600,1.932
27.8000,1.990
27.8400,1.943
27.8800,1.969
27.9200,1.925
27.9600,1.892
28.0000,1.934
28.0400,1.905
28.0800,1.901
28.1200,1.921
28.1600,1.820
28.2000,1.955
28.2400,1.927
28.2800,1.959
28.3200,1.884
28.3600,1.847
28.4000,1.833
28.4400,1.861
28.4800,1.899
28.5200,1.892
28.5600,1.877
28.6000,1.958
28.6400,1.879
28.6800,1.844
28.7200,1.890
28.7600,1.896
28.8000,1.878
28.8400,1.889
28.8800,1.864
28.9200,1.860
28.9600,1.856
29.0000,1.881
29.0400,1.826
29.0800,1.875
29.1200,1.877
29.1600,1.819
29.2000,1.758
29.2400,1.833
29.2800,1.831
29.3200,1.778
29.3600,1.888
29.4000,1.835
29.4400,1.914
29.4800,1.784
29.5200,1.766
29.5600,1.771
29.6000,1.768
29.6400,1.760
29.6800,1.762
29.7200,1.802
29.7600,1.777
29.8000,1.782
29.8400,1.802
29.8800,1.826
29.9200,1.741
29.9600,1.780
30.0000,1.834
30.0400,1.776
30.0800,1.830
30.1200,1.735
30.1600,1.758
30.2000,1.776
30.2400,1.769
30.2800,1.775
30.3200,1.729
30.3600,1.784
30.4000,1.760
30.4400,1.749
30.4800,1.717
30.5200,1.769
30.5600,1.761
30.6000,1.742
30.6400,1.744
30.6800,1.693
30.7200,1.800
30.7600,1.708
30.8000,1.701
30.8400,1.679
30.8800,1.648
30.9200,1.680
30.9600,1.750
31.0000,1.693
31.0400,1.665
31.0800,1.698
31.1200,1.653
31.1600,1.717
31.2000,1.728
31.2400,1.673
31.2800,1.649
31.3200,1.673
31.3600,1.745
31.4000,1.685
31.4400,1.715
31.4800,1.688
31.5200,1.703
31.5600,1.670
31.6000,1.666
31.6400,1.692
31.6800,1.703
31.7200,1.629
31.7600,1.644
31.8000,1.606
31.8400,1.575
31.8800,1.648
31.9200,1.662
31.9600,1.591
32.0000,1.598
32.0400,1.628
32.0800,1.575
32.1200,1.650
32.1600,1.704
32.2000,1.680
32.2400,1.594
32.2800,1.568
32.3200,1.628
32.3600,1.627
32.4000,1.609
32.4400,1.591
32.4800,1.563
32.5200,1.633
32.5600,1.609
32.6000,1.670
32.6400,1.582
32.6800,1.587
32.7200,1.612
32.7600,1.535
32.8000,1.537
32.8400,1.584
32.8800,1.600
32.9200,1.603
32.9600,1.590
33.0000,1.652
33.0400,1.539
33.0800,1.538
33.1200,1.558
33.1600,1.569
33.2000,1.624
33.2400,1.598
33.2800,1.533
33.3200,1.558
33.3600,1.504
33.4000,1.498
33.4400,1.617
33.4800,1.606
33.5200,1.542
33.5600,1.581
33.6000,1.577
33.6400,1.513
33.6800,1.583
33.7200,1.611
33.7600,1.530
33.8000,1.538
33.8400,1.544
33.8800,1.541
33.9200,1.557
33.9600,1.522
34.0000,1.495
34.0400,1.475
34.0800,1.498
34.1200,1.503
34.1600,1.536
34.2000,1.575
34.2400,1.485
34.2800,1.559
34.3200,1.470
34.3600,1.449
34.4000,1.497
34.4400,1.544
34.4800,1.473
34.5200,1.485
34.5600,1.495
34.6000,1.544
34.6400,1.479
34.6800,1.519
34.7200,1.427
34.7600,1.441
34.8000,1.516
34.8400,1.478
34.8800,1.452
34.9200,1.490
34.9600,1.458
35.0000,1.407
35.0400,1.519
35.0800,1.498
35.1200,1.461
35.1600,1.426
35.2000,1.367
35.2400,1.410
35.2800,1.492
35.3200,1.470
35.3600,1.479
35.4000,1.472
35.4400,1.470
35.4800,1.514
35.5200,1.424
35.5600,1.439
35.6000,1.442
35.6400,1.504
35.6800,1.409
35.7200,1.443
35.7600,1.428
35.8000,1.488
35.8400,1.535
35.8800,1.468
35.9200,1.446
35.9600,1.488
36.0000,1.480
36.0400,1.528
36.0800,1.478
36.1200,1.432
36.1600,1.461
36.2000,1.488
36.2400,1.466
36.2800,1.479
36.3200,1.463
36.3600,1.454
36.4000,1.532
36.4400,1.554
36.4800,1.525
36.5200,1.516
36.5600,1.531
36.6000,1.524
36.6400,1.463
36.6800,1.535
36.7200,1.595
36.7600,1.521
36.8000,1.482
36.8400,1.525
36.8800,1.540
36.9200,1.556
36.9600,1.615
37.0000,1.576
37.0400,1.484
37.0800,1.563
37.1200,1.659
37.1600,1.626
37.2000,1.640
37.2400,1.575
37.2800,1.629
37.3200,1.675
37.3600,1.662
37.4000,1.704
37.4400,1.695
37.4800,1.691
37.5200,1.749
37.5600,1.715
37.6000,1.801
37.6400,1.706
37.6800,1.805
37.7200,1.936
37.7600,1.930
37.8000,2.080
37.8400,2.099
37.8800,2.078
37.9200,2.162
37.9600,2.406
38.0000,2.449
38.0400,2.572
38.0800,2.780
38.1200,2.982
38.1600,3.214
38.2000,3.462
38.2400,3.693
38.2800,4.038
38.3200,4.568
38.3600,4.864
38.4000,5.354
38.4400,5.869
38.4800,6.352
38.5200,6.778
38.5600,7.379
38.6000,7.947
38.6400,8.614
38.6800,9.177
38.7200,9.454
38.7600,9.465
38.8000,8.927
38.8400,8.313
38.8800,7.481
38.9200,6.600
38.9600,5.912
39.0000,5.316
39.0400,4.726
39.0800,4.436
39.1200,4.036
39.1600,3.884
39.2000,3.672
39.2400,3.427
39.2800,3.317
39.3200,3.069
39.3600,3.090
39.4000,2.822
39.4400,2.786
39.4800,2.740
39.5200,2.600
39.5600,2.617
39.6000,2.586
39.6400,2.495
39.6800,2.399
39.7200,2.351
39.7600,2.275
39.8000,2.300
39.8400,2.303
39.8800,2.170
39.9200,2.086
39.9600,2.147
40.0000,2.090
40.0400,2.070
40.0800,1.976
40.1200,2.011
40.1600,2.006
40.2000,1.902
40.2400,1.810
40.2800,1.887
40.3200,1.652
40.3600,1.794
40.4000,1.675
40.4400,1.666
40.4800,1.691
40.5200,1.695
40.5600,1.621
40.6000,1.622
40.6400,1.585
40.6800,1.572
40.7200,1.540
40.7600,1.475
40.8000,1.448
40.8400,1.478
40.8800,1.441
40.9200,1.502
40.9600,1.404
41.0000,1.423
41.0400,1.450
41.0800,1.446
41.1200,1.429
41.1600,1.406
41.2000,1.310
41.2400,1.344
41.2800,1.291
41.3200,1.376
41.3600,1.362
41.4000,1.375
41.4400,1.303
41.4800,1.315
41.5200,1.376
41.5600,1.321
41.6000,1.303
41.6400,1.259
41.6800,1.252
41.7200,1.317
41.7600,1.263
41.8000,1.322
41.8400,1.224
41.8800,1.237
41.9200,1.236
41.9600,1.247
42.0000,1.289
42.0400,1.268
42.0800,1.214
42.1200,1.278
42.1600,1.182
42.2000,1.286
42.2400,1.267
42.2800,1.175
42.3200,1.236
42.3600,1.212
42.4000,1.248
42.4400,1.223
42.4800,1.245
42.5200,1.273
42.5600,1.258
42.6000,1.251
42.6400,1.173
42.6800,1.228
42.7200,1.300
42.7600,1.244
42.8000,1.244
42.8400,1.232
42.8800,1.230
42.9200,1.201
42.9600,1.198
43.0000,1.249
43.0400,1.240
43.0800,1.272
43.1200,1.288
43.1600,1.295
43.2000,1.327
43.2400,1.232
43.2800,1.257
43.3200,1.247
43.3600,1.302
43.4000,1.204
43.4400,1.262
43.4800,1.330
43.5200,1.334
43.5600,1.350
43.6000,1.321
43.6400,1.319
43.6800,1.322
43.7200,1.387
43.7600,1.436
43.8000,1.424
43.8400,1.368
43.8800,1.505
43.9200,1.475
43.9600,1.475
44.0000,1.485
44.0400,1.532
44.0800,1.554
44.1200,1.615
44.1600,1.564
44.2000,1.581
44.2400,1.697
44.2800,1.788
44.3200,1.784
44.3600,1.756
44.4000,1.852
44.4400,1.912
44.4800,2.008
44.5200,2.075
44.5600,2.180
44.6000,2.224
44.6400,2.359
44.6800,2.419
44.7200,2.490
44.7600,2.538
44.8000,2.720
44.8400,2.732
44.8800,2.865
44.9200,2.878
44.9600,2.923
45.0000,3.106
45.0400,3.085
45.0800,3.080
45.1200,3.093
45.1600,2.855
45.2000,2.787
45.2400,2.726
45.2800,2.540
45.3200,2.231
45.3600,2.245
45.4000,2.173
45.4400,2.083
45.4800,1.900
45.5200,1.902
45.5600,1.843
45.6000,1.777
45.6400,1.744
45.6800,1.658
45.7200,1.615
45.7600,1.508
45.8000,1.494
45.8400,1.517
45.8800,1.475
45.9200,1.435
45.9600,1.402
46.0000,1.413
46.0400,1.408
46.0800,1.352
46.1200,1.326
46.1600,1.232
46.2000,1.333
46.2400,1.233
46.2800,1.268
46.3200,1.196
46.3600,1.200
46.4000,1.189
46.4400,1.184
46.4800,1.219
46.5200,1.149
46.5600,1.142
46.6000,1.089
46.6400,1.130
46.6800,1.162
46.7200,1.095
46.7600,1.083
46.8000,1.104
46.8400,1.050
46.8800,1.069
46.9200,1.066
46.9600,1.057
47.0000,1.049
47.0400,1.038
47.0800,1.090
47.1200,1.037
47.1600,0.989
47.2000,0.957
47.2400,0.985
47.2800,1.013
47.3200,1.000
47.3600,1.019
47.4000,0.986
47.4400,0.982
47.4800,0.964
47.5200,0.951
47.5600,0.953
47.6000,0.914
47.6400,0.956
47.6800,0.969
47.7200,0.896
47.7600,0.891
47.8000,0.950
47.8400,0.939
47.8800,0.921
47.9200,0.918
47.9600,0.884
48.0000,0.928
48.0400,0.899
48.0800,0.903
48.1200,0.876
48.1600,0.891
48.2000,0.881
48.2400,0.836
48.2800,0.856
48.3200,0.848
48.3600,0.860
48.4000,0.873
48.4400,0.856
48.4800,0.845
48.5200,0.846
48.5600,0.889
48.6000,0.881
48.6400,0.830
48.6800,0.862
48.7200,0.844
48.7600,0.855
48.8000,0.837
48.8400,0.824
48.8800,0.857
48.9200,0.830
48.9600,0.851
49.0000,0.866
49.0400,0.836
49.0800,0.795
49.1200,0.843
49.1600,0.843
49.2000,0.825
49.2400,0.799
49.2800,0.817
49.3200,0.770
49.3600,0.806
49.4000,0.801
49.4400,0.824
49.4800,0.848
49.5200,0.790
49.5600,0.819
49.6000,0.773
49.6400,0.787
49.6800,0.754
49.7200,0.815
49.7600,0.832
49.8000,0.837
49.8400,0.813
49.8800,0.762
49.9200,0.812
49.9600,0.788
50.0000,0.767
50.0400,0.760
50.0800,0.764
50.1200,0.782
50.1600,0.775
50.2000,0.797
50.2400,0.756
50.2800,0.728
50.3200,0.767
50.3600,0.769
50.4000,0.767
50.4400,0.733
50.4800,0.822
50.5200,0.792
50.5600,0.786
50.6000,0.788
50.6400,0.740
50.6800,0.730
50.7200,0.762
50.7600,0.732
50.8000,0.732
50.8400,0.746
50.8800,0.741
50.9200,0.747
50.9600,0.722
51.0000,0.746
51.0400,0.785
51.0800,0.699
51.1200,0.727
51.1600,0.723
51.2000,0.754
51.2400,0.764
51.2800,0.743
51.3200,0.742
51.3600,0.736
51.4000,0.703
51.4400,0.696
51.4800,0.699
51.5200,0.761
51.5600,0.714
51.6000,0.722
51.6400,0.718
51.6800,0.688
51.7200,0.742
51.7600,0.689
51.8000,0.693
51.8400,0.779
51.8800,0.714
51.9200,0.701
51.9600,0.719
52.0000,0.712
52.0400,0.723
52.0800,0.742
52.1200,0.732
52.1600,0.718
52.2000,0.732
52.2400,0.688
52.2800,0.687
52.3200,0.687
52.3600,0.706
52.4000,0.660
52.4400,0.717
52.4800,0.696
52.5200,0.703
52.5600,0.659
52.6000,0.664
52.6400,0.670
52.6800,0.753
52.7200,0.698
52.7600,0.677
52.8000,0.671
52.8400,0.720
52.8800,0.695
52.9200,0.674
52.9600,0.679
53.0000,0.702
53.0400,0.692
53.0800,0.686
53.1200,0.692
53.1600,0.680
53.2000,0.719
53.2400,0.647
53.2800,0.699
53.3200,0.704
53.3600,0.681
53.4000,0.714
53.4400,0.668
53.4800,0.733
53.5200,0.732
53.5600,0.679
53.6000,0.666
53.6400,0.662
53.6800,0.677
53.7200,0.677
53.7600,0.703
53.8000,0.675
53.8400,0.636
53.8800,0.695
53.9200,0.620
53.9600,0.647
54.0000,0.680
54.0400,0.617
54.0800,0.615
54.1200,0.696
54.1600,0.692
54.2000,0.637
54.2400,0.624
54.2800,0.678
54.3200,0.707
54.3600,0.675
54.4000,0.629
54.4400,0.606
54.4800,0.680
54.5200,0.659
54.5600,0.690
54.6000,0.633
54.6400,0.682
54.6800,0.616
54.7200,0.647
54.7600,0.653
54.8000,0.635
54.8400,0.610
54.8800,0.645
54.9200,0.651
54.9600,0.677
55.0000,0.625
55.0400,0.618
55.0800,0.641
55.1200,0.604
55.1600,0.644
55.2000,0.630
55.2400,0.603
55.2800,0.692
55.3200,0.596
55.3600,0.628
55.4000,0.612
55.4400,0.588
55.4800,0.661
55.5200,0.631
55.5600,0.605
55.6000,0.661
55.6400,0.608
55.6800,0.638
55.7200,0.597
55.7600,0.632
55.8000,0.648
55.8400,0.650
55.8800,0.619
55.9200,0.636
55.9600,0.652
56.0000,0.632
56.0400,0.650
56.0800,0.658
56.1200,0.629
56.1600,0.594
56.2000,0.645
56.2400,0.611
56.2800,0.623
56.3200,0.625
56.3600,0.593
56.4000,0.628
56.4400,0.620
56.4800,0.619
56.5200,0.604
56.5600,0.598
56.6000,0.620
56.6400,0.645
56.6800,0.560
56.7200,0.618
56.7600,0.626
56.8000,0.643
56.8400,0.655
56.8800,0.657
56.9200,0.627
56.9600,0.582
57.0000,0.609
57.0400,0.565
57.0800,0.597
57.1200,0.655
57.1600,0.614
57.2000,0.625
57.2400,0.646
57.2800,0.581
57.3200,0.602
57.3600,0.607
57.4000,0.578
57.4400,0.557
57.4800,0.582
57.5200,0.585
57.5600,0.565
57.6000,0.583
57.6400,0.587
57.6800,0.577
57.7200,0.603
57.7600,0.613
57.8000,0.586
57.8400,0.608
57.8800,0.569
57.9200,0.594
57.9600,0.599
58.0000,0.572
58.0400,0.590
58.0800,0.595
58.1200,0.589
58.1600,0.581
58.2000,0.618
58.2400,0.575
58.2800,0.560
58.3200,0.573
58.3600,0.539
58.4000,0.629
58.4400,0.560
58.4800,0.579
58.5200,0.591
58.5600,0.619
58.6000,0.581
58.6400,0.558
58.6800,0.598
58.7200,0.579
58.7600,0.589
58.8000,0.583
58.8400,0.597
58.8800,0.604
58.9200,0.605
58.9600,0.613
59.0000,0.565
59.0400,0.574
59.0800,0.585
59.1200,0.557
59.1600,0.561
59.2000,0.571
59.2400,0.524
59.2800,0.558
59.3200,0.582
59.3600,0.573
59.4000,0.572
59.4400,0.609
59.4800,0.561
59.5200,0.562
59.5600,0.496
59.6000,0.558
59.6400,0.606
59.6800,0.571
59.7200,0.582
59.7600,0.556
59.8000,0.542
59.8400,0.550
59.8800,0.542
59.9200,0.557
59.9600,0.591
60.0000,0.567
60.0400,0.540
60.0800,0.556
60.1200,0.564
60.1600,0.570
60.2000,0.565
60.2400,0.508
60.2800,0.557
60.3200,0.565
60.3600,0.579
60.4000,0.538
60.4400,0.549
60.4800,0.530
60.5200,0.600
60.5600,0.544
60.6000,0.524
60.6400,0.558
60.6800,0.557
60.7200,0.566
60.7600,0.552
60.8000,0.535
60.8400,0.540
60.8800,0.544
60.9200,0.545
60.9600,0.507
61.0000,0.516
61.0400,0.525
61.0800,0.531
61.1200,0.491
61.1600,0.556
61.2000,0.550
61.2400,0.521
61.2800,0.526
61.3200,0.522
61.3600,0.564
61.4000,0.554
61.4400,0.547
61.4800,0.508
61.5200,0.547
61.5600,0.503
61.6000,0.551
61.6400,0.535
61.6800,0.603
61.7200,0.638
61.7600,0.633
61.8000,0.579
61.8400,0.573
61.8800,0.559
61.9200,0.546
61.9600,0.525
62.0000,0.491
62.0400,0.496
62.0800,0.569
62.1200,0.540
62.1600,0.532
62.2000,0.574
62.2400,0.520
62.2800,0.530
62.3200,0.506
62.3600,0.527
62.4000,0.558
62.4400,0.537
62.4800,0.524
62.5200,0.502
62.5600,0.513
62.6000,0.531
62.6400,0.554
62.6800,0.534
62.7200,0.545
62.7600,0.549
62.8000,0.561
62.8400,0.575
62.8800,0.574
62.9200,0.558
62.9600,0.545
63.0000,0.533
63.0400,0.499
63.0800,0.545
63.1200,0.537
63.1600,0.544
63.2000,0.561
63.2400,0.556
63.2800,0.506
63.3200,0.544
63.3600,0.519
63.4000,0.569
63.4400,0.613
63.4800,0.562
63.5200,0.590
63.5600,0.567
63.6000,0.557
63.6400,0.599
63.6800,0.573
63.7200,0.620
63.7600,0.580
63.8000,0.555
63.8400,0.565
63.8800,0.563
63.9200,0.647
63.9600,0.638
64.0000,0.632
64.0400,0.626
64.0800,0.581
64.1200,0.609
64.1600,0.625
64.2000,0.646
64.2400,0.649
64.2800,0.695
64.3200,0.739
64.3600,0.660
64.4000,0.684
64.4400,0.756
64.4800,0.744
64.5200,0.791
64.5600,0.793
64.6000,0.844
64.6400,0.857
64.6800,0.906
64.7200,0.867
64.7600,0.991
64.8000,0.956
64.8400,0.984
64.8800,1.005
64.9200,1.043
64.9600,1.098
65.0000,1.060
65.0400,1.194
65.0800,1.213
65.1200,1.236
65.1600,1.234
65.2000,1.287
65.2400,1.320
65.2800,1.435
65.3200,1.450
65.3600,1.423
65.4000,1.615
65.4400,1.623
65.4800,1.639
65.5200,1.684
65.5600,1.650
65.6000,1.617
65.6400,1.582
65.6800,1.540
65.7200,1.553
65.7600,1.482
65.8000,1.374
65.8400,1.348
65.8800,1.266
65.9200,1.243
65.9600,1.135
66.0000,1.126
66.0400,1.102
66.0800,1.105
66.1200,1.025
66.1600,1.015
66.2000,1.017
66.2400,0.988
66.2800,1.026
66.3200,0.956
66.3600,0.900
66.4000,0.906
66.4400,0.927
66.4800,0.896
66.5200,0.956
66.5600,0.874
66.6000,0.958
66.6400,0.993
66.6800,0.918
66.7200,0.970
66.7600,0.935
66.8000,0.920
66.8400,0.950
66.8800,0.987
66.9200,1.013
66.9600,0.988
67.0000,1.015
67.0400,0.983
67.0800,0.975
67.1200,0.982
67.1600,0.950
67.2000,1.058
67.2400,1.043
67.2800,1.010
67.3200,1.081
67.3600,1.111
67.4000,1.085
67.4400,1.066
67.4800,1.049
67.5200,1.048
67.5600,1.147
67.6000,1.181
67.6400,1.172
67.6800,1.150
67.7200,1.216
67.7600,1.234
67.8000,1.187
67.8400,1.234
67.8800,1.293
67.9200,1.255
67.9600,1.399
68.0000,1.399
68.0400,1.458
68.0800,1.456
68.1200,1.492
68.1600,1.476
68.2000,1.537
68.2400,1.567
68.2800,1.599
68.3200,1.616
68.3600,1.617
68.4000,1.713
68.4400,1.811
68.4800,1.829
68.5200,1.903
68.5600,1.982
68.6000,2.151
68.6400,2.282
68.6800,2.432
68.7200,2.603
68.7600,3.090
68.8000,3.900
68.8400,5.005
68.8800,5.734
68.9200,5.706
68.9600,6.059
69.0000,7.019
69.0400,9.890
69.0800,16.810
69.1200,41.701
69.1600,199.320
69.2000,387.374
69.2400,245.093
69.2800,64.435
69.3200,42.097
69.3600,119.875
69.4000,202.260
69.4400,120.838
69.4800,32.425
69.5200,13.050
69.5600,8.428
69.6000,6.136
69.6400,5.032
69.6800,4.308
69.7200,3.803
69.7600,3.311
69.8000,2.966
69.8400,2.872
69.8800,2.693
69.9200,2.431
69.9600,2.371
70.0000,2.160
70.0400,2.055
70.0800,2.045
70.1200,1.931
70.1600,1.894
70.2000,1.854
70.2400,1.701
70.2800,1.692
70.3200,1.619
70.3600,1.663
70.4000,1.564
70.4400,1.527
70.4800,1.437
70.5200,1.402
70.5600,1.396
70.6000,1.372
70.6400,1.340
70.6800,1.234
70.7200,1.211
70.7600,1.241
70.8000,1.232
70.8400,1.099
70.8800,1.107
70.9200,1.075
70.9600,1.102
71.0000,1.017
71.0400,1.082
71.0800,1.034
71.1200,0.952
71.1600,0.963
71.2000,0.931
71.2400,0.922
71.2800,0.917
71.3200,0.855
71.3600,0.889
71.4000,0.819
71.4400,0.851
71.4800,0.781
71.5200,0.831
71.5600,0.786
71.6000,0.814
71.6400,0.732
71.6800,0.755
71.7200,0.786
71.7600,0.739
71.8000,0.711
71.8400,0.709
71.8800,0.658
71.9200,0.671
71.9600,0.639
72.0000,0.639
72.0400,0.664
72.0800,0.665
72.1200,0.641
72.1600,0.606
72.2000,0.623
72.2400,0.599
72.2800,0.628
72.3200,0.571
72.3600,0.567
72.4000,0.571
72.4400,0.599
72.4800,0.519
72.5200,0.568
72.5600,0.551
72.6000,0.535
72.6400,0.578
72.6800,0.574
72.7200,0.573
72.7600,0.546
72.8000,0.523
72.8400,0.544
72.8800,0.543
72.9200,0.517
72.9600,0.524
73.0000,0.527
73.0400,0.494
73.0800,0.472
73.1200,0.457
73.1600,0.519
73.2000,0.501
73.2400,0.476
73.2800,0.463
73.3200,0.470
73.3600,0.449
73.4000,0.476
73.4400,0.467
73.4800,0.447
73.5200,0.475
73.5600,0.445
73.6000,0.460
73.6400,0.465
73.6800,0.444
73.7200,0.430
73.7600,0.433
73.8000,0.475
73.8400,0.454
73.8800,0.420
73.9200,0.419
73.9600,0.430
74.0000,0.436
74.0400,0.456
74.0800,0.413
74.1200,0.411
74.1600,0.423
74.2000,0.446
74.2400,0.414
74.2800,0.440
74.3200,0.419
74.3600,0.405
74.4000,0.426
74.4400,0.428
74.4800,0.412
74.5200,0.415
74.5600,0.383
74.6000,0.434
74.6400,0.411
74.6800,0.386
74.7200,0.421
74.7600,0.413
74.8000,0.412
74.8400,0.431
74.8800,0.436
74.9200,0.362
74.9600,0.402
75.0000,0.407
75.0400,0.409
75.0800,0.396
75.1200,0.386
75.1600,0.370
75.2000,0.397
75.2400,0.418
75.2800,0.394
75.3200,0.392
75.3600,0.381
75.4000,0.360
75.4400,0.383
75.4800,0.427
75.5200,0.376
75.5600,0.377
75.6000,0.407
75.6400,0.385
75.6800,0.384
75.7200,0.360
75.7600,0.385
75.8000,0.358
75.8400,0.409
75.8800,0.373
75.9200,0.388
75.9600,0.386
76.0000,0.388
76.0400,0.342
76.0800,0.380
76.1200,0.395
76.1600,0.394
76.2000,0.359
76.2400,0.371
76.2800,0.358
76.3200,0.394
76.3600,0.395
76.4000,0.402
76.4400,0.388
76.4800,0.430
76.5200,0.390
76.5600,0.376
76.6000,0.400
76.6400,0.418
76.6800,0.403
76.7200,0.405
76.7600,0.397
76.8000,0.384
76.8400,0.427
76.8800,0.399
76.9200,0.429
76.9600,0.407
77.0000,0.439
77.0400,0.412
77.0800,0.460
77.1200,0.431
77.1600,0.468
77.2000,0.469
77.2400,0.461
77.2800,0.494
77.3200,0.495
77.3600,0.500
77.4000,0.500
77.4400,0.531
77.4800,0.522
77.5200,0.552
77.5600,0.546
77.6000,0.612
77.6400,0.590
77.6800,0.590
77.7200,0.587
77.7600,0.674
77.8000,0.665
77.8400,0.677
77.8800,0.681
77.9200,0.763
77.9600,0.798
78.0000,0.796
78.0400,0.752
78.0800,0.771
78.1200,0.849
78.1600,0.838
78.2000,0.853
78.2400,0.873
78.2800,0.879
78.3200,0.909
78.3600,0.949
78.4000,1.069
78.4400,1.009
78.4800,0.978
78.5200,1.119
78.5600,1.109
78.6000,1.119
78.6400,1.116
78.6800,1.232
78.7200,1.148
78.7600,1.211
78.8000,1.191
78.8400,1.170
78.8800,1.191
78.9200,1.151
78.9600,1.071
79.0000,1.104
79.0400,1.023
79.0800,1.011
79.1200,0.862
79.1600,0.842
79.2000,0.805
79.2400,0.767
79.2800,0.751
79.3200,0.710
79.3600,0.659
79.4000,0.643
79.4400,0.649
79.4800,0.656
79.5200,0.597
79.5600,0.588
79.6000,0.569
79.6400,0.562
79.6800,0.543
79.7200,0.511
79.7600,0.526
79.8000,0.528
79.8400,0.459
79.8800,0.482
79.9200,0.493
79.9600,0.467
80.0000,0.488
