theta,intensity
5.0000,7.118
5.0400,7.104
5.0800,6.780
5.1200,6.750
5.1600,6.576
5.2000,6.500
5.2400,6.451
5.2800,6.320
5.3200,6.202
5.3600,6.134
5.4000,6.003
5.4400,6.045
5.4800,5.799
5.5200,5.653
5.5600,5.523
5.6000,5.516
5.6400,5.270
5.6800,5.196
5.7200,5.196
5.7600,5.044
5.8000,4.880
5.8400,4.734
5.8800,4.738
5.9200,4.589
5.9600,4.525
6.0000,4.528
6.0400,4.487
6.0800,4.492
6.1200,4.406
6.1600,4.368
6.2000,4.335
6.2400,4.435
6.2800,4.382
6.3200,4.220
6.3600,4.276
6.4000,4.285
6.4400,4.221
6.4800,4.223
6.5200,4.334
6.5600,4.288
6.6000,4.232
6.6400,4.107
6.6800,4.258
6.7200,4.206
6.7600,4.242
6.8000,4.249
6.8400,4.210
6.8800,4.013
6.9200,4.098
6.9600,4.145
7.0000,4.101
7.0400,4.062
7.0800,4.119
7.1200,4.188
7.1600,4.191
7.2000,4.104
7.2400,4.166
7.2800,4.166
7.3200,4.056
7.3600,4.028
7.4000,4.016
7.4400,4.127
7.4800,4.038
7.5200,4.049
7.5600,4.082
7.6000,4.046
7.6400,4.024
7.6800,3.995
7.7200,4.099
7.7600,3.998
7.8000,3.925
7.8400,4.041
7.8800,4.051
7.9200,4.000
7.9600,3.977
8.0000,3.935
8.0400,4.048
8.0800,3.959
8.1200,3.991
8.1600,4.050
8.2000,3.824
8.2400,4.008
8.2800,3.935
8.3200,3.896
8.3600,3.943
8.4000,3.950
8.4400,4.003
8.4800,3.939
8.5200,3.800
8.5600,3.847
8.6000,3.976
8.6400,3.903
8.6800,3.872
8.7200,3.804
8.7600,3.949
8.8000,3.853
8.8400,3.706
8.8800,3.769
8.9200,3.916
8.9600,3.839
9.0000,3.779
9.0400,3.848
9.0800,3.782
9.1200,3.787
9.1600,3.766
9.2000,3.831
9.2400,3.755
9.2800,3.913
9.3200,3.918
9.3600,3.782
9.4000,3.635
9.4400,3.748
9.4800,3.761
9.5200,3.795
9.5600,3.805
9.6000,3.765
9.6400,3.731
9.6800,3.732
9.7200,3.700
9.7600,3.737
9.8000,3.666
9.8400,3.702
9.8800,3.861
9.9200,3.634
9.9600,3.709
10.0000,3.654
10.0400,3.787
10.0800,3.726
10.1200,3.695
10.1600,3.756
10.2000,3.627
10.2400,3.674
10.2800,3.716
10.3200,3.669
10.3600,3.605
10.4000,3.710
10.4400,3.637
10.4800,3.711
10.5200,3.577
10.5600,3.594
10.6000,3.536
10.6400,3.593
10.6800,3.719
10.7200,3.581
10.7600,3.540
10.8000,3.673
10.8400,3.488
10.8800,3.610
10.9200,3.575
10.9600,3.605
11.0000,3.601
11.0400,3.564
11.0800,3.521
11.1200,3.505
11.1600,3.471
11.2000,3.521
11.2400,3.527
11.2800,3.565
11.3200,3.479
11.3600,3.542
11.4000,3.634
11.4400,3.651
11.4800,3.414
11.5200,3.522
11.5600,3.612
11.6000,3.532
11.6400,3.551
11.6800,3.575
11.7200,3.586
11.7600,3.511
11.8000,3.504
11.8400,3.580
11.8800,3.522
11.9200,3.579
11.9600,3.504
12.0000,3.479
12.0400,3.514
12.0800,3.554
12.1200,3.497
12.1600,3.481
12.2000,3.463
12.2400,3.517
12.2800,3.508
12.3200,3.430
12.3600,3.506
12.4000,3.523
12.4400,3.407
12.4800,3.439
12.5200,3.426
12.5600,3.382
12.6000,3.327
12.6400,3.358
12.6800,3.349
12.7200,3.398
12.7600,3.473
12.8000,3.377
12.8400,3.384
12.8800,3.418
12.9200,3.438
12.9600,3.338
13.0000,3.380
13.0400,3.370
13.0800,3.424
13.1200,3.440
13.1600,3.346
13.2000,3.367
13.2400,3.367
13.2800,3.396
13.3200,3.388
13.3600,3.340
13.4000,3.388
13.4400,3.310
13.4800,3.400
13.5200,3.409
13.5600,3.292
13.6000,3.263
13.6400,3.303
13.6800,3.313
13.7200,3.276
13.7600,3.175
13.8000,3.266
13.8400,3.368
13.8800,3.244
13.9200,3.317
13.9600,3.344
14.0000,3.268
14.0400,3.293
14.0800,3.309
14.1200,3.267
14.1600,3.323
14.2000,3.218
14.2400,3.191
14.2800,3.210
14.3200,3.282
14.3600,3.184
14.4000,3.256
14.4400,3.352
14.4800,3.259
14.5200,3.145
14.5600,3.247
14.6000,3.268
14.6400,3.236
14.6800,3.300
14.7200,3.256
14.7600,3.136
14.8000,3.158
14.8400,3.209
14.8800,3.227
14.9200,3.280
14.9600,3.202
15.0000,3.205
15.0400,3.170
15.0800,3.256
15.1200,3.213
15.1600,3.208
15.2000,3.172
15.2400,3.204
15.2800,3.147
15.3200,3.210
15.3600,3.146
15.4000,3.125
15.4400,3.146
15.4800,3.090
15.5200,3.096
15.5600,3.083
15.6000,3.180
15.6400,3.090
15.6800,3.020
15.7200,3.201
15.7600,3.134
15.8000,3.177
15.8400,3.068
15.8800,3.045
15.9200,3.070
15.9600,3.154
16.0000,3.034
16.0400,3.096
16.0800,2.982
16.1200,3.033
16.1600,3.123
16.2000,3.034
16.2400,2.972
16.2800,3.022
16.3200,3.040
16.3600,3.108
16.4000,3.116
16.4400,3.016
16.4800,3.095
16.5200,3.043
16.5600,3.083
16.6000,3.067
16.6400,3.087
16.6800,3.049
16.7200,3.095
16.7600,3.059
16.8000,3.044
16.8400,2.969
16.8800,3.038
16.9200,3.071
16.9600,2.981
17.0000,3.107
17.0400,3.085
17.0800,3.028
17.1200,2.879
17.1600,3.019
17.2000,2.986
17.2400,3.058
17.2800,2.918
17.3200,2.859
17.3600,2.960
17.4000,2.860
17.4400,2.875
17.4800,2.923
17.5200,2.860
17.5600,2.982
17.6000,2.902
17.6400,2.869
17.6800,2.926
17.7200,2.958
17.7600,2.970
17.8000,2.943
17.8400,2.973
17.8800,2.922
17.9200,2.897
17.9600,2.854
18.0000,2.865
18.0400,2.852
18.0800,2.890
18.1200,2.794
18.1600,2.792
18.2000,2.918
18.2400,2.926
18.2800,2.871
18.3200,2.859
18.3600,2.944
18.4000,2.867
18.4400,2.795
18.4800,2.805
18.5200,2.821
18.5600,2.817
18.6000,2.754
18.6400,2.881
18.6800,2.727
18.7200,2.819
18.7600,2.805
18.8000,2.822
18.8400,2.831
18.8800,2.766
18.9200,2.784
18.9600,2.782
19.0000,2.857
19.0400,2.829
19.0800,2.835
19.1200,2.718
19.1600,2.903
19.2000,2.807
19.2400,2.801
19.2800,2.795
19.3200,2.840
19.3600,2.771
19.4000,2.888
19.4400,2.807
19.4800,2.728
19.5200,2.719
19.5600,2.719
19.6000,2.705
19.6400,2.798
19.6800,2.725
19.7200,2.755
19.7600,2.732
19.8000,2.741
19.8400,2.793
19.8800,2.724
19.9200,2.716
19.9600,2.703
20.0000,2.712
20.0400,2.735
20.0800,2.697
20.1200,2.699
20.1600,2.591
20.2000,2.707
20.2400,2.771
20.2800,2.770
20.3200,2.646
20.3600,2.736
20.4000,2.626
20.4400,2.676
20.4800,2.703
20.5200,2.596
20.5600,2.564
20.6000,2.606
20.6400,2.655
20.6800,2.632
20.7200,2.638
20.7600,2.671
20.8000,2.602
20.8400,2.721
20.8800,2.572
20.9200,2.612
20.9600,2.586
21.0000,2.528
21.0400,2.603
21.0800,2.615
21.1200,2.609
21.1600,2.620
21.2000,2.612
21.2400,2.562
21.2800,2.544
21.3200,2.562
21.3600,2.591
21.4000,2.594
21.4400,2.639
21.4800,2.540
21.5200,2.607
21.5600,2.627
21.6000,2.648
21.6400,2.522
21.6800,2.618
21.7200,2.556
21.7600,2.474
21.8000,2.600
21.8400,2.408
21.8800,2.557
21.9200,2.505
21.9600,2.492
22.0000,2.577
22.0400,2.525
22.0800,2.441
22.1200,2.495
22.1600,2.513
22.2000,2.520
22.2400,2.488
22.2800,2.488
22.3200,2.454
22.3600,2.470
22.4000,2.462
22.4400,2.475
22.4800,2.592
22.5200,2.444
22.5600,2.526
22.6000,2.494
22.6400,2.486
22.6800,2.393
22.7200,2.446
22.7600,2.411
22.8000,2.472
22.8400,2.475
22.8800,2.525
22.9200,2.465
22.9600,2.454
23.0000,2.405
23.0400,2.415
23.0800,2.463
23.1200,2.485
23.1600,2.401
23.2000,2.439
23.2400,2.417
23.2800,2.423
23.3200,2.436
23.3600,2.406
23.4000,2.430
23.4400,2.460
23.4800,2.445
23.5200,2.315
23.5600,2.346
23.6000,2.466
23.6400,2.389
23.6800,2.364
23.7200,2.390
23.7600,2.407
23.8000,2.258
23.8400,2.397
23.8800,2.454
23.9200,2.340
23.9600,2.418
24.0000,2.370
24.0400,2.348
24.0800,2.319
24.1200,2.293
24.1600,2.296
24.2000,2.304
24.2400,2.267
24.2800,2.190
24.3200,2.249
24.3600,2.318
24.4000,2.325
24.4400,2.303
24.4800,2.367
24.5200,2.350
24.5600,2.319
24.6000,2.323
24.6400,2.334
24.6800,2.383
24.7200,2.319
24.7600,2.305
24.8000,2.248
24.8400,2.380
24.8800,2.308
24.9200,2.257
24.9600,2.272
25.0000,2.226
25.0400,2.208
25.0800,2.250
25.1200,2.233
25.1600,2.209
25.2000,2.264
25.2400,2.284
25.2800,2.308
25.3200,2.192
25.3600,2.220
25.4000,2.262
25.4400,2.210
25.4800,2.207
25.5200,2.264
25.5600,2.164
25.6000,2.226
25.6400,2.221
25.6800,2.218
25.7200,2.243
25.7600,2.184
25.8000,2.202
25.8400,2.159
25.8800,2.213
25.9200,2.157
25.9600,2.203
26.0000,2.194
26.0400,2.225
26.0800,2.264
26.1200,2.130
26.1600,2.088
26.2000,2.206
26.2400,2.203
26.2800,2.124
26.3200,2.114
26.3600,2.107
26.4000,2.078
26.4400,2.129
26.4800,2.210
26.5200,2.067
26.5600,2.102
26.6000,2.090
26.6400,2.112
26.6800,2.099
26.7200,2.206
26.7600,2.121
26.8000,2.114
26.8400,2.123
26.8800,2.059
26.9200,2.140
26.9600,2.138
27.0000,2.093
27.0400,2.127
27.0800,2.080
27.1200,2.045
27.1600,2.048
27.2000,2.064
27.2400,2.089
27.2800,2.000
27.3200,2.031
27.3600,2.027
27.4000,2.075
27.4400,1.986
27.4800,2.078
27.5200,2.064
27.5600,2.021
27.6000,2.015
27.6400,2.067
27.6800,2.114
27.7200,2.077
27.7600,1.948
27.8000,2.044
27.8400,2.062
27.8800,2.004
27.9200,2.061
27.9600,2.042
28.0000,2.029
28.0400,1.965
28.0800,2.039
28.1200,2.036
28.1600,2.083
28.2000,2.032
28.2400,2.011
28.2800,2.005
28.3200,1.978
28.3600,2.019
28.4000,2.007
28.4400,1.913
28.4800,1.954
28.5200,1.941
28.5600,1.997
28.6000,1.956
28.6400,1.931
28.6800,2.001
28.7200,1.979
28.7600,2.028
28.8000,1.940
28.8400,1.959
28.8800,1.991
28.9200,1.919
28.9600,1.985
29.0000,1.948
29.0400,1.905
29.0800,1.964
29.1200,1.912
29.1600,1.868
29.2000,1.949
29.2400,1.923
29.2800,1.936
29.3200,1.895
29.3600,1.950
29.4000,1.974
29.4400,1.919
29.4800,1.928
29.5200,1.931
29.5600,1.877
29.6000,1.966
29.6400,1.892
29.6800,1.835
29.7200,1.841
29.7600,1.869
29.8000,1.886
29.8400,1.876
29.8800,1.826
29.9200,1.799
29.9600,1.847
30.0000,1.842
30.0400,1.851
30.0800,1.878
30.1200,1.899
30.1600,1.862
30.2000,1.823
30.2400,1.872
30.2800,1.777
30.3200,1.803
30.3600,1.806
30.4000,1.826
30.4400,1.835
30.4800,1.893
30.5200,1.849
30.5600,1.875
30.6000,1.786
30.6400,1.718
30.6800,1.828
30.7200,1.821
30.7600,1.769
30.8000,1.817
30.8400,1.810
30.8800,1.843
30.9200,1.801
30.9600,1.836
31.0000,1.745
31.0400,1.790
31.0800,1.777
31.1200,1.790
31.1600,1.783
31.2000,1.821
31.2400,1.770
31.2800,1.788
31.3200,1.814
31.3600,1.772
31.4000,1.757
31.4400,1.810
31.4800,1.793
31.5200,1.804
31.5600,1.776
31.6000,1.746
31.6400,1.688
31.6800,1.731
31.7200,1.736
31.7600,1.787
31.8000,1.778
31.8400,1.745
31.8800,1.725
31.9200,1.665
31.9600,1.801
32.0000,1.834
32.0400,1.778
32.0800,1.696
32.1200,1.763
32.1600,1.723
32.2000,1.677
32.2400,1.702
32.2800,1.685
32.3200,1.721
32.3600,1.682
32.4000,1.713
32.4400,1.699
32.4800,1.667
32.5200,1.659
32.5600,1.656
32.6000,1.747
32.6400,1.666
32.6800,1.721
32.7200,1.701
32.7600,1.730
32.8000,1.673
32.8400,1.719
32.8800,1.733
32.9200,1.661
32.9600,1.614
33.0000,1.666
33.0400,1.616
33.0800,1.670
33.1200,1.621
33.1600,1.591
33.2000,1.676
33.2400,1.658
33.2800,1.740
33.3200,1.621
33.3600,1.628
33.4000,1.622
33.4400,1.684
33.4800,1.708
33.5200,1.623
33.5600,1.651
33.6000,1.658
33.6400,1.655
33.6800,1.643
33.7200,1.621
33.7600,1.679
33.8000,1.618
33.8400,1.638
33.8800,1.647
33.9200,1.641
33.9600,1.564
34.0000,1.539
34.0400,1.648
34.0800,1.631
34.1200,1.649
34.1600,1.609
34.2000,1.566
34.2400,1.659
34.2800,1.635
34.3200,1.557
34.3600,1.652
34.4000,1.581
34.4400,1.618
34.4800,1.601
34.5200,1.573
34.5600,1.611
34.6000,1.606
34.6400,1.594
34.6800,1.603
34.7200,1.633
34.7600,1.622
34.8000,1.591
34.8400,1.588
34.8800,1.502
34.9200,1.603
34.9600,1.628
35.0000,1.580
35.0400,1.605
35.0800,1.620
35.1200,1.592
35.1600,1.591
35.2000,1.638
35.2400,1.606
35.2800,1.524
35.3200,1.601
35.3600,1.622
35.4000,1.557
35.4400,1.606
35.4800,1.605
35.5200,1.603
35.5600,1.608
35.6000,1.600
35.6400,1.645
35.6800,1.615
35.7200,1.629
35.7600,1.620
35.8000,1.615
35.8400,1.660
35.8800,1.658
35.9200,1.605
35.9600,1.649
36.0000,1.669
36.0400,1.687
36.0800,1.659
36.1200,1.720
36.1600,1.696
36.2000,1.671
36.2400,1.656
36.2800,1.719
36.3200,1.717
36.3600,1.768
36.4000,1.678
36.4400,1.661
36.4800,1.772
36.5200,1.783
36.5600,1.792
36.6000,1.777
36.6400,1.841
36.6800,1.805
36.7200,1.789
36.7600,1.935
36.8000,1.911
36.8400,1.915
36.8800,1.958
36.9200,1.892
36.9600,2.106
37.0000,2.054
37.0400,2.074
37.0800,2.081
37.1200,2.249
37.1600,2.239
37.2000,2.188
37.2400,2.180
37.2800,2.300
37.3200,2.515
37.3600,2.511
37.4000,2.551
37.4400,2.684
37.4800,2.764
37.5200,2.889
37.5600,3.004
37.6000,3.190
37.6400,3.369
37.6800,3.441
37.7200,3.680
37.7600,3.855
37.8000,4.040
37.8400,4.396
37.8800,4.671
37.9200,4.888
37.9600,5.081
38.0000,5.498
38.0400,5.936
38.0800,6.163
38.1200,6.414
38.1600,6.557
38.2000,6.844
38.2400,6.865
38.2800,7.024
38.3200,6.842
38.3600,6.794
38.4000,6.663
38.4400,6.616
38.4800,6.254
38.5200,6.074
38.5600,5.753
38.6000,5.565
38.6400,5.036
38.6800,4.900
38.7200,4.666
38.7600,4.513
38.8000,4.290
38.8400,4.028
38.8800,3.742
38.9200,3.605
38.9600,3.431
39.0000,3.292
39.0400,3.071
39.0800,3.153
39.1200,2.948
39.1600,2.970
39.2000,2.933
39.2400,2.673
39.2800,2.596
39.3200,2.568
39.3600,2.495
39.4000,2.329
39.4400,2.382
39.4800,2.305
39.5200,2.240
39.5600,2.275
39.6000,2.175
39.6400,2.184
39.6800,2.044
39.7200,1.957
39.7600,2.084
39.8000,2.047
39.8400,1.970
39.8800,1.881
39.9200,1.896
39.9600,1.841
40.0000,1.888
40.0400,1.757
40.0800,1.709
40.1200,1.844
40.1600,1.798
40.2000,1.856
40.2400,1.796
40.2800,1.750
40.3200,1.738
40.3600,1.714
40.4000,1.699
40.4400,1.617
40.4800,1.658
40.5200,1.634
40.5600,1.622
40.6000,1.633
40.6400,1.642
40.6800,1.612
40.7200,1.578
40.7600,1.630
40.8000,1.528
40.8400,1.561
40.8800,1.570
40.9200,1.666
40.9600,1.523
41.0000,1.614
41.0400,1.538
41.0800,1.586
41.1200,1.604
41.1600,1.580
41.2000,1.459
41.2400,1.551
41.2800,1.528
41.3200,1.541
41.3600,1.513
41.4000,1.541
41.4400,1.526
41.4800,1.607
41.5200,1.517
41.5600,1.498
41.6000,1.482
41.6400,1.471
41.6800,1.471
41.7200,1.459
41.7600,1.465
41.8000,1.468
41.8400,1.465
41.8800,1.479
41.9200,1.471
41.9600,1.459
42.0000,1.407
42.0400,1.432
42.0800,1.479
42.1200,1.452
42.1600,1.491
42.2000,1.494
42.2400,1.417
42.2800,1.416
42.3200,1.563
42.3600,1.392
42.4000,1.480
42.4400,1.488
42.4800,1.447
42.5200,1.521
42.5600,1.457
42.6000,1.504
42.6400,1.553
42.6800,1.520
42.7200,1.421
42.7600,1.558
42.8000,1.536
42.8400,1.549
42.8800,1.513
42.9200,1.550
42.9600,1.619
43.0000,1.508
43.0400,1.525
43.0800,1.518
43.1200,1.544
43.1600,1.562
43.2000,1.626
43.2400,1.580
43.2800,1.596
43.3200,1.627
43.3600,1.653
43.4000,1.592
43.4400,1.671
43.4800,1.764
43.5200,1.737
43.5600,1.769
43.6000,1.734
43.6400,1.776
43.6800,1.759
43.7200,1.810
43.7600,1.857
43.8000,1.924
43.8400,1.918
43.8800,1.906
43.9200,1.892
43.9600,1.964
44.0000,2.023
44.0400,1.943
44.0800,2.061
44.1200,2.045
44.1600,2.089
44.2000,2.023
44.2400,2.101
44.2800,2.147
44.3200,2.212
44.3600,2.196
44.4000,2.228
44.4400,2.242
44.4800,2.171
44.5200,2.156
44.5600,2.078
44.6000,2.201
44.6400,2.089
44.6800,2.094
44.7200,2.153
44.7600,2.074
44.8000,2.046
44.8400,2.078
44.8800,2.046
44.9200,1.948
44.9600,1.923
45.0000,1.836
45.0400,1.827
45.0800,1.795
45.1200,1.679
45.1600,1.641
45.2000,1.696
45.2400,1.611
45.2800,1.654
45.3200,1.618
45.3600,1.590
45.4000,1.581
45.4400,1.463
45.4800,1.503
45.5200,1.400
45.5600,1.453
45.6000,1.409
45.6400,1.366
45.6800,1.329
45.7200,1.321
45.7600,1.325
45.8000,1.308
45.8400,1.272
45.8800,1.229
45.9200,1.274
45.9600,1.246
46.0000,1.285
46.0400,1.211
46.0800,1.175
46.1200,1.160
46.1600,1.197
46.2000,1.163
46.2400,1.152
46.2800,1.152
46.3200,1.110
46.3600,1.115
46.4000,1.145
46.4400,1.119
46.4800,1.105
46.5200,1.065
46.5600,1.071
46.6000,1.082
46.6400,1.010
46.6800,1.026
46.7200,1.023
46.7600,1.109
46.8000,1.030
46.8400,0.999
46.8800,1.057
46.9200,0.998
46.9600,1.035
47.0000,1.043
47.0400,1.010
47.0800,0.962
47.1200,0.967
47.1600,0.950
47.2000,0.985
47.2400,0.956
47.2800,1.012
47.3200,0.954
47.3600,0.963
47.4000,0.926
47.4400,0.929
47.4800,0.982
47.5200,0.988
47.5600,0.975
47.6000,0.940
47.6400,0.875
47.6800,0.950
47.7200,0.997
47.7600,0.952
47.8000,0.946
47.8400,0.922
47.8800,0.953
47.9200,0.906
47.9600,0.913
48.0000,0.851
48.0400,0.901
48.0800,0.935
48.1200,0.843
48.1600,0.890
48.2000,0.893
48.2400,0.925
48.2800,0.919
48.3200,0.862
48.3600,0.882
48.4000,0.897
48.4400,0.896
48.4800,0.913
48.5200,0.876
48.5600,0.932
48.6000,0.910
48.6400,0.898
48.6800,0.857
48.7200,0.867
48.7600,0.852
48.8000,0.870
48.8400,0.889
48.8800,0.878
48.9200,0.849
48.9600,0.879
49.0000,0.815
49.0400,0.829
49.0800,0.901
49.1200,0.880
49.1600,0.834
49.2000,0.835
49.2400,0.835
49.2800,0.832
49.3200,0.867
49.3600,0.861
49.4000,0.847
49.4400,0.824
49.4800,0.849
49.5200,0.858
49.5600,0.778
49.6000,0.814
49.6400,0.852
49.6800,0.827
49.7200,0.832
49.7600,0.824
49.8000,0.847
49.8400,0.808
49.8800,0.823
49.9200,0.846
49.9600,0.834
50.0000,0.816
50.0400,0.831
50.0800,0.871
50.1200,0.865
50.1600,0.846
50.2000,0.812
50.2400,0.791
50.2800,0.837
50.3200,0.758
50.3600,0.813
50.4000,0.814
50.4400,0.804
50.4800,0.781
50.5200,0.795
50.5600,0.831
50.6000,0.844
50.6400,0.794
50.6800,0.828
50.7200,0.818
50.7600,0.776
50.8000,0.792
50.8400,0.764
50.8800,0.735
50.9200,0.723
50.9600,0.805
51.0000,0.826
51.0400,0.806
51.0800,0.769
51.1200,0.813
51.1600,0.737
51.2000,0.792
51.2400,0.796
51.2800,0.775
51.3200,0.784
51.3600,0.758
51.4000,0.824
51.4400,0.775
51.4800,0.787
51.5200,0.778
51.5600,0.741
51.6000,0.760
51.6400,0.768
51.6800,0.793
51.7200,0.777
51.7600,0.763
51.8000,0.742
51.8400,0.732
51.8800,0.746
51.9200,0.723
51.9600,0.749
52.0000,0.765
52.0400,0.766
52.0800,0.753
52.1200,0.826
52.1600,0.713
52.2000,0.752
52.2400,0.690
52.2800,0.735
52.3200,0.761
52.3600,0.743
52.4000,0.726
52.4400,0.734
52.4800,0.694
52.5200,0.734
52.5600,0.720
52.6000,0.723
52.6400,0.713
52.6800,0.710
52.7200,0.717
52.7600,0.697
52.8000,0.700
52.8400,0.707
52.8800,0.719
52.9200,0.682
52.9600,0.712
53.0000,0.756
53.0400,0.694
53.0800,0.710
53.1200,0.718
53.1600,0.730
53.2000,0.727
53.2400,0.691
53.2800,0.757
53.3200,0.720
53.3600,0.683
53.4000,0.711
53.4400,0.690
53.4800,0.692
53.5200,0.663
53.5600,0.717
53.6000,0.692
53.6400,0.659
53.6800,0.703
53.7200,0.723
53.7600,0.747
53.8000,0.707
53.8400,0.677
53.8800,0.654
53.9200,0.707
53.9600,0.683
54.0000,0.718
54.0400,0.664
54.0800,0.666
54.1200,0.726
54.1600,0.688
54.2000,0.656
54.2400,0.683
54.2800,0.707
54.3200,0.704
54.3600,0.664
54.4000,0.705
54.4400,0.670
54.4800,0.687
54.5200,0.645
54.5600,0.678
54.6000,0.729
54.6400,0.690
54.6800,0.704
54.7200,0.661
54.7600,0.683
54.8000,0.699
54.8400,0.692
54.8800,0.652
54.9200,0.640
54.9600,0.643
55.0000,0.697
55.0400,0.699
55.0800,0.667
55.1200,0.707
55.1600,0.639
55.2000,0.636
55.2400,0.700
55.2800,0.640
55.3200,0.669
55.3600,0.687
55.4000,0.666
55.4400,0.688
55.4800,0.660
55.5200,0.693
55.5600,0.668
55.6000,0.670
55.6400,0.676
55.6800,0.693
55.7200,0.639
55.7600,0.644
55.8000,0.682
55.8400,0.662
55.8800,0.687
55.9200,0.675
55.9600,0.635
56.0000,0.612
56.0400,0.654
56.0800,0.631
56.1200,0.664
56.1600,0.652
56.2000,0.668
56.2400,0.668
56.2800,0.672
56.3200,0.622
56.3600,0.641
56.4000,0.660
56.4400,0.650
56.4800,0.626
56.5200,0.661
56.5600,0.653
56.6000,0.686
56.6400,0.663
56.6800,0.680
56.7200,0.648
56.7600,0.666
56.8000,0.617
56.8400,0.651
56.8800,0.679
56.9200,0.601
56.9600,0.665
57.0000,0.661
57.0400,0.651
57.0800,0.668
57.1200,0.677
57.1600,0.628
57.2000,0.630
57.2400,0.654
57.2800,0.610
57.3200,0.655
57.3600,0.613
57.4000,0.599
57.4400,0.646
57.4800,0.618
57.5200,0.631
57.5600,0.632
57.6000,0.624
57.6400,0.580
57.6800,0.621
57.7200,0.657
57.7600,0.610
57.8000,0.590
57.8400,0.646
57.8800,0.622
57.9200,0.633
57.9600,0.610
58.0000,0.620
58.0400,0.583
58.0800,0.612
58.1200,0.637
58.1600,0.657
58.2000,0.625
58.2400,0.593
58.2800,0.579
58.3200,0.577
58.3600,0.624
58.4000,0.593
58.4400,0.637
58.4800,0.648
58.5200,0.612
58.5600,0.645
58.6000,0.624
58.6400,0.583
58.6800,0.598
58.7200,0.609
58.7600,0.573
58.8000,0.614
58.8400,0.654
58.8800,0.618
58.9200,0.597
58.9600,0.619
59.0000,0.634
59.0400,0.562
59.0800,0.616
59.1200,0.628
59.1600,0.607
59.2000,0.620
59.2400,0.637
59.2800,0.560
59.3200,0.594
59.3600,0.570
59.4000,0.575
59.4400,0.589
59.4800,0.580
59.5200,0.540
59.5600,0.597
59.6000,0.608
59.6400,0.608
59.6800,0.581
59.7200,0.580
59.7600,0.592
59.8000,0.587
59.8400,0.626
59.8800,0.597
59.9200,0.594
59.9600,0.598
60.0000,0.612
60.0400,0.590
60.0800,0.623
60.1200,0.603
60.1600,0.618
60.2000,0.586
60.2400,0.590
60.2800,0.593
60.3200,0.622
60.3600,0.576
60.4000,0.627
60.4400,0.561
60.4800,0.615
60.5200,0.609
60.5600,0.559
60.6000,0.547
60.6400,0.553
60.6800,0.565
60.7200,0.582
60.7600,0.548
60.8000,0.573
60.8400,0.596
60.8800,0.570
60.9200,0.600
60.9600,0.592
61.0000,0.586
61.0400,0.608
61.0800,0.568
61.1200,0.593
61.1600,0.584
61.2000,0.588
61.2400,0.602
61.2800,0.581
61.3200,0.592
61.3600,0.583
61.4000,0.565
61.4400,0.559
61.4800,0.581
61.5200,0.591
61.5600,0.643
61.6000,0.649
61.6400,0.675
61.6800,0.597
61.7200,0.574
61.7600,0.647
61.8000,0.565
61.8400,0.568
61.8800,0.568
61.9200,0.603
61.9600,0.619
62.0000,0.594
62.0400,0.585
62.0800,0.612
62.1200,0.588
62.1600,0.614
62.2000,0.600
62.2400,0.575
62.2800,0.625
62.3200,0.612
62.3600,0.625
62.4000,0.619
62.4400,0.576
62.4800,0.629
62.5200,0.654
62.5600,0.607
62.6000,0.639
62.6400,0.561
62.6800,0.635
62.7200,0.615
62.7600,0.641
62.8000,0.620
62.8400,0.656
62.8800,0.640
62.9200,0.661
62.9600,0.651
63.0000,0.623
63.0400,0.637
63.0800,0.627
63.1200,0.656
63.1600,0.640
63.2000,0.702
63.2400,0.682
63.2800,0.635
63.3200,0.691
63.3600,0.709
63.4000,0.675
63.4400,0.715
63.4800,0.671
63.5200,0.679
63.5600,0.697
63.6000,0.736
63.6400,0.748
63.6800,0.788
63.7200,0.749
63.7600,0.818
63.8000,0.791
63.8400,0.840
63.8800,0.818
63.9200,0.851
63.9600,0.883
64.0000,0.855
64.0400,0.857
64.0800,0.903
64.1200,0.899
64.1600,0.903
64.2000,0.915
64.2400,0.958
64.2800,0.978
64.3200,1.043
64.3600,1.010
64.4000,1.029
64.4400,1.099
64.4800,1.147
64.5200,1.172
64.5600,1.145
64.6000,1.148
64.6400,1.212
64.6800,1.177
64.7200,1.158
64.7600,1.247
64.8000,1.196
64.8400,1.224
64.8800,1.253
64.9200,1.194
64.9600,1.244
65.0000,1.258
65.0400,1.145
65.0800,1.110
65.1200,1.147
65.1600,1.110
65.2000,1.132
65.2400,1.107
65.2800,1.136
65.3200,1.041
65.3600,1.077
65.4000,1.089
65.4400,1.056
65.4800,1.081
65.5200,1.026
65.5600,1.013
65.6000,1.033
65.6400,0.975
65.6800,1.004
65.7200,0.944
65.7600,0.947
65.8000,0.957
65.8400,0.989
65.8800,0.988
65.9200,0.928
65.9600,0.885
66.0000,0.912
66.0400,0.938
66.0800,0.895
66.1200,0.888
66.1600,0.877
66.2000,0.961
66.2400,0.913
66.2800,0.940
66.3200,0.918
66.3600,0.858
66.4000,0.900
66.4400,0.886
66.4800,0.911
66.5200,0.926
66.5600,0.968
66.6000,0.946
66.6400,0.940
66.6800,0.942
66.7200,1.009
66.7600,1.025
66.8000,1.008
66.8400,1.011
66.8800,1.063
66.9200,1.107
66.9600,1.083
67.0000,1.052
67.0400,1.116
67.0800,1.147
67.1200,1.075
67.1600,1.101
67.2000,1.133
67.2400,1.138
67.2800,1.099
67.3200,1.157
67.3600,1.204
67.4000,1.205
67.4400,1.271
67.4800,1.244
67.5200,1.214
67.5600,1.317
67.6000,1.327
67.6400,1.359
67.6800,1.339
67.7200,1.391
67.7600,1.520
67.8000,1.432
67.8400,1.438
67.8800,1.529
67.9200,1.535
67.9600,1.549
68.0000,1.596
68.0400,1.680
68.0800,1.687
68.1200,1.731
68.1600,1.850
68.2000,1.889
68.2400,1.943
68.2800,1.921
68.3200,2.143
68.3600,2.065
68.4000,2.307
68.4400,2.378
68.4800,2.568
68.5200,2.637
68.5600,2.746
68.6000,3.044
68.6400,3.351
68.6800,4.204
68.7200,5.444
68.7600,6.675
68.8000,7.189
68.8400,7.175
68.8800,8.087
68.9200,10.072
68.9600,14.870
69.0000,27.800
69.0400,99.343
69.0800,382.364
69.1200,446.912
69.1600,166.287
69.2000,47.152
69.2400,72.722
69.2800,214.450
69.3200,230.370
69.3600,80.801
69.4000,22.206
69.4400,12.167
69.4800,8.469
69.5200,6.768
69.5600,5.779
69.6000,5.018
69.6400,4.189
69.6800,3.833
69.7200,3.509
69.7600,3.284
69.8000,3.004
69.8400,2.795
69.8800,2.696
69.9200,2.581
69.9600,2.493
70.0000,2.300
70.0400,2.325
70.0800,2.142
70.1200,2.070
70.1600,2.081
70.2000,1.957
70.2400,1.850
70.2800,1.813
70.3200,1.769
70.3600,1.703
70.4000,1.730
70.4400,1.611
70.4800,1.544
70.5200,1.538
70.5600,1.504
70.6000,1.437
70.6400,1.467
70.6800,1.404
70.7200,1.359
70.7600,1.331
70.8000,1.255
70.8400,1.238
70.8800,1.276
70.9200,1.205
70.9600,1.118
71.0000,1.184
71.0400,1.134
71.0800,1.094
71.1200,1.097
71.1600,1.006
71.2000,1.041
71.2400,1.035
71.2800,0.979
71.3200,0.934
71.3600,0.923
71.4000,0.883
71.4400,0.861
71.4800,0.815
71.5200,0.897
71.5600,0.854
71.6000,0.849
71.6400,0.872
71.6800,0.825
71.7200,0.797
71.7600,0.795
71.8000,0.762
71.8400,0.766
71.8800,0.757
71.9200,0.751
71.9600,0.703
72.0000,0.721
72.0400,0.676
72.0800,0.669
72.1200,0.719
72.1600,0.619
72.2000,0.678
72.2400,0.710
72.2800,0.678
72.3200,0.652
72.3600,0.687
72.4000,0.648
72.4400,0.658
72.4800,0.600
72.5200,0.652
72.5600,0.597
72.6000,0.645
72.6400,0.562
72.6800,0.586
72.7200,0.578
72.7600,0.564
72.8000,0.560
72.8400,0.577
72.8800,0.569
72.9200,0.584
72.9600,0.557
73.0000,0.543
73.0400,0.535
73.0800,0.519
73.1200,0.530
73.1600,0.511
73.2000,0.559
73.2400,0.504
73.2800,0.498
73.3200,0.502
73.3600,0.517
73.4000,0.530
73.4400,0.531
73.4800,0.494
73.5200,0.485
73.5600,0.469
73.6000,0.460
73.6400,0.492
73.6800,0.505
73.7200,0.504
73.7600,0.501
73.8000,0.508
73.8400,0.511
73.8800,0.471
73.9200,0.464
73.9600,0.473
74.0000,0.515
74.0400,0.468
74.0800,0.472
74.1200,0.473
74.1600,0.481
74.2000,0.468
74.2400,0.501
74.2800,0.454
74.3200,0.422
74.3600,0.461
74.4000,0.460
74.4400,0.438
74.4800,0.471
74.5200,0.452
74.5600,0.500
74.6000,0.499
74.6400,0.472
74.6800,0.500
74.7200,0.473
74.7600,0.480
74.8000,0.445
74.8400,0.446
74.8800,0.467
74.9200,0.479
74.9600,0.468
75.0000,0.445
75.0400,0.428
75.0800,0.458
75.1200,0.453
75.1600,0.483
75.2000,0.429
75.2400,0.443
75.2800,0.462
75.3200,0.485
75.3600,0.452
75.4000,0.436
75.4400,0.482
75.4800,0.446
75.5200,0.502
75.5600,0.439
75.6000,0.487
75.6400,0.445
75.6800,0.433
75.7200,0.467
75.7600,0.453
75.8000,0.477
75.8400,0.493
75.8800,0.443
75.9200,0.427
75.9600,0.428
76.0000,0.478
76.0400,0.524
76.0800,0.488
76.1200,0.509
76.1600,0.488
76.2000,0.483
76.2400,0.491
76.2800,0.506
76.3200,0.512
76.3600,0.520
76.4000,0.535
76.4400,0.524
76.4800,0.535
76.5200,0.521
76.5600,0.561
76.6000,0.540
76.6400,0.561
76.6800,0.580
76.7200,0.579
76.7600,0.509
76.8000,0.600
76.8400,0.609
76.8800,0.640
76.9200,0.648
76.9600,0.630
77.0000,0.677
77.0400,0.658
77.0800,0.684
77.1200,0.663
77.1600,0.627
77.2000,0.678
77.2400,0.712
77.2800,0.748
77.3200,0.725
77.3600,0.770
77.4000,0.788
77.4400,0.772
77.4800,0.813
77.5200,0.813
77.5600,0.780
77.6000,0.802
77.6400,0.845
77.6800,0.824
77.7200,0.844
77.7600,0.859
77.8000,0.809
77.8400,0.873
77.8800,0.866
77.9200,0.813
77.9600,0.854
78.0000,0.813
78.0400,0.815
78.0800,0.803
78.1200,0.785
78.1600,0.771
78.2000,0.767
78.2400,0.752
78.2800,0.768
78.3200,0.663
78.3600,0.742
78.4000,0.712
78.4400,0.682
78.4800,0.698
78.5200,0.711
78.5600,0.660
78.6000,0.630
78.6400,0.625
78.6800,0.596
78.7200,0.586
78.7600,0.586
78.8000,0.624
78.8400,0.563
78.8800,0.593
78.9200,0.594
78.9600,0.579
79.0000,0.577
79.0400,0.557
79.0800,0.506
79.1200,0.537
79.1600,0.517
79.2000,0.492
79.2400,0.515
79.2800,0.465
79.3200,0.484
79.3600,0.465
79.4000,0.488
79.4400,0.487
79.4800,0.464
79.5200,0.422
79.5600,0.478
79.6000,0.469
79.6400,0.438
79.6800,0.417
79.7200,0.422
79.7600,0.415
79.8000,0.421
79.8400,0.408
79.8800,0.421
79.9200,0.416
79.9600,0.418
80.0000,0.405
