theta,intensity
5.0000,4.369
5.0400,4.448
5.0800,4.355
5.1200,4.472
5.1600,4.267
5.2000,4.273
5.2400,4.366
5.2800,4.309
5.3200,4.367
5.3600,4.259
5.4000,4.200
5.4400,4.183
5.4800,4.404
5.5200,4.240
5.5600,4.234
5.6000,4.332
5.6400,4.192
5.6800,4.307
5.7200,4.099
5.7600,4.210
5.8000,4.208
5.8400,4.231
5.8800,4.202
5.9200,4.111
5.9600,4.144
6.0000,4.073
6.0400,4.057
6.0800,4.006
6.1200,3.985
6.1600,4.060
6.2000,4.127
6.2400,4.068
6.2800,3.984
6.3200,3.950
6.3600,3.951
6.4000,4.014
6.4400,4.058
6.4800,3.916
6.5200,3.945
6.5600,3.966
6.6000,3.937
6.6400,4.025
6.6800,3.937
6.7200,3.808
6.7600,4.008
6.8000,3.997
6.8400,3.986
6.8800,4.006
6.9200,3.866
6.9600,3.856
7.0000,3.958
7.0400,3.961
7.0800,3.950
7.1200,3.955
7.1600,3.876
7.2000,3.875
7.2400,3.787
7.2800,3.905
7.3200,3.881
7.3600,3.907
7.4000,3.919
7.4400,3.830
7.4800,3.897
7.5200,3.854
7.5600,3.828
7.6000,3.795
7.6400,3.770
7.6800,3.773
7.7200,3.759
7.7600,3.788
7.8000,3.908
7.8400,3.925
7.8800,3.879
7.9200,3.708
7.9600,3.852
8.0000,3.821
8.0400,3.799
8.0800,3.736
8.1200,3.801
8.1600,3.792
8.2000,3.737
8.2400,3.780
8.2800,3.839
8.3200,3.794
8.3600,3.860
8.4000,3.820
8.4400,3.757
8.4800,3.806
8.5200,3.721
8.5600,3.817
8.6000,3.695
8.6400,3.686
8.6800,3.847
8.7200,3.668
8.7600,3.806
8.8000,3.707
8.8400,3.755
8.8800,3.725
8.9200,3.696
8.9600,3.729
9.0000,3.696
9.0400,3.633
9.0800,3.624
9.1200,3.741
9.1600,3.675
9.2000,3.693
9.2400,3.623
9.2800,3.687
9.3200,3.665
9.3600,3.765
9.4000,3.620
9.4400,3.694
9.4800,3.588
9.5200,3.718
9.5600,3.685
9.6000,3.593
9.6400,3.721
9.6800,3.667
9.7200,3.647
9.7600,3.591
9.8000,3.614
9.8400,3.696
9.8800,3.616
9.9200,3.551
9.9600,3.623
10.0000,3.628
10.0400,3.611
10.0800,3.694
10.1200,3.573
10.1600,3.674
10.2000,3.646
10.2400,3.622
10.2800,3.595
10.3200,3.547
10.3600,3.550
10.4000,3.691
10.4400,3.543
10.4800,3.612
10.5200,3.525
10.5600,3.563
10.6000,3.530
10.6400,3.473
10.6800,3.534
10.7200,3.578
10.7600,3.555
10.8000,3.463
10.8400,3.512
10.8800,3.585
10.9200,3.565
10.9600,3.456
11.0000,3.527
11.0400,3.567
11.0800,3.570
11.1200,3.452
11.1600,3.436
11.2000,3.532
11.2400,3.450
11.2800,3.545
11.3200,3.427
11.3600,3.468
11.4000,3.423
11.4400,3.442
11.4800,3.456
11.5200,3.400
11.5600,3.391
11.6000,3.417
11.6400,3.441
11.6800,3.429
11.7200,3.420
11.7600,3.429
11.8000,3.421
11.8400,3.434
11.8800,3.475
11.9200,3.384
11.9600,3.399
12.0000,3.464
12.0400,3.434
12.0800,3.395
12.1200,3.440
12.1600,3.528
12.2000,3.430
12.2400,3.404
12.2800,3.358
12.3200,3.370
12.3600,3.397
12.4000,3.344
12.4400,3.435
12.4800,3.341
12.5200,3.338
12.5600,3.363
12.6000,3.425
12.6400,3.311
12.6800,3.470
12.7200,3.451
12.7600,3.390
12.8000,3.478
12.8400,3.400
12.8800,3.359
12.9200,3.293
12.9600,3.403
13.0000,3.341
13.0400,3.391
13.0800,3.361
13.1200,3.292
13.1600,3.305
13.2000,3.357
13.2400,3.323
13.2800,3.296
13.3200,3.290
13.3600,3.312
13.4000,3.261
13.4400,3.371
13.4800,3.321
13.5200,3.267
13.5600,3.240
13.6000,3.290
13.6400,3.301
13.6800,3.416
13.7200,3.273
13.7600,3.298
13.8000,3.271
13.8400,3.235
13.8800,3.199
13.9200,3.266
13.9600,3.241
14.0000,3.316
14.0400,3.168
14.0800,3.270
14.1200,3.237
14.1600,3.221
14.2000,3.143
14.2400,3.204
14.2800,3.244
14.3200,3.260
14.3600,3.198
14.4000,3.179
14.4400,3.243
14.4800,3.231
14.5200,3.187
14.5600,3.236
14.6000,3.122
14.6400,3.123
14.6800,3.182
14.7200,3.176
14.7600,3.153
14.8000,3.187
14.8400,3.212
14.8800,3.145
14.9200,3.193
14.9600,3.165
15.0000,3.165
15.0400,3.188
15.0800,3.142
15.1200,3.066
15.1600,3.139
15.2000,3.085
15.2400,3.141
15.2800,3.054
15.3200,3.132
15.3600,3.237
15.4000,3.200
15.4400,3.109
15.4800,3.144
15.5200,3.154
15.5600,3.164
15.6000,3.117
15.6400,3.101
15.6800,3.079
15.7200,2.982
15.7600,3.127
15.8000,3.130
15.8400,3.043
15.8800,3.078
15.9200,3.065
15.9600,2.995
16.0000,3.063
16.0400,3.168
16.0800,3.198
16.1200,3.010
16.1600,3.053
16.2000,3.000
16.2400,3.004
16.2800,3.068
16.3200,3.121
16.3600,2.967
16.4000,3.062
16.4400,3.051
16.4800,3.042
16.5200,3.020
16.5600,3.076
16.6000,2.950
16.6400,2.937
16.6800,3.003
16.7200,2.929
16.7600,2.952
16.8000,2.951
16.8400,2.920
16.8800,2.974
16.9200,2.940
16.9600,2.978
17.0000,3.019
17.0400,3.067
17.0800,3.117
17.1200,2.958
17.1600,3.032
17.2000,2.917
17.2400,2.997
17.2800,3.008
17.3200,2.935
17.3600,2.973
17.4000,2.973
17.4400,3.022
17.4800,2.974
17.5200,2.898
17.5600,2.841
17.6000,2.862
17.6400,2.939
17.6800,2.938
17.7200,2.932
17.7600,2.871
17.8000,2.904
17.8400,2.972
17.8800,2.878
17.9200,2.924
17.9600,2.949
18.0000,2.928
18.0400,2.882
18.0800,2.895
18.1200,2.916
18.1600,2.881
18.2000,3.166
18.2400,3.207
18.2800,3.252
18.3200,3.291
18.3600,3.297
18.4000,3.245
18.4400,3.072
18.4800,2.994
18.5200,2.869
18.5600,2.933
18.6000,2.824
18.6400,2.800
18.6800,2.865
18.7200,2.875
18.7600,2.769
18.8000,2.775
18.8400,2.861
18.8800,2.795
18.9200,2.779
18.9600,2.795
19.0000,2.735
19.0400,2.796
19.0800,2.699
19.1200,2.723
19.1600,2.801
19.2000,2.740
19.2400,2.792
19.2800,2.790
19.3200,2.694
19.3600,2.757
19.4000,2.695
19.4400,2.779
19.4800,2.716
19.5200,2.742
19.5600,2.774
19.6000,2.918
19.6400,2.746
19.6800,2.741
19.7200,2.661
19.7600,2.766
19.8000,2.655
19.8400,2.688
19.8800,2.735
19.9200,2.708
19.9600,2.636
20.0000,2.640
20.0400,2.783
20.0800,2.690
20.1200,2.679
20.1600,2.714
20.2000,2.730
20.2400,2.675
20.2800,2.771
20.3200,2.744
20.3600,2.709
20.4000,2.665
20.4400,2.645
20.4800,2.646
20.5200,2.541
20.5600,2.630
20.6000,2.619
20.6400,2.757
20.6800,2.812
20.7200,2.774
20.7600,2.783
20.8000,2.758
20.8400,2.553
20.8800,2.561
20.9200,2.594
20.9600,2.685
21.0000,2.601
21.0400,2.612
21.0800,2.604
21.1200,2.632
21.1600,2.546
21.2000,2.557
21.2400,2.591
21.2800,2.577
21.3200,2.518
21.3600,2.552
21.4000,2.572
21.4400,2.502
21.4800,2.583
21.5200,2.514
21.5600,2.625
21.6000,2.555
21.6400,2.570
21.6800,2.560
21.7200,2.565
21.7600,2.543
21.8000,2.552
21.8400,2.596
21.8800,2.604
21.9200,2.495
21.9600,2.535
22.0000,2.574
22.0400,2.377
22.0800,2.477
22.1200,2.520
22.1600,2.361
22.2000,2.511
22.2400,2.531
22.2800,2.438
22.3200,2.504
22.3600,2.510
22.4000,2.481
22.4400,2.528
22.4800,2.526
22.5200,2.524
22.5600,2.456
22.6000,2.454
22.6400,2.382
22.6800,2.470
22.7200,2.481
22.7600,2.479
22.8000,2.443
22.8400,2.356
22.8800,2.472
22.9200,2.506
22.9600,2.426
23.0000,2.407
23.0400,2.477
23.0800,2.467
23.1200,2.406
23.1600,2.462
23.2000,2.438
23.2400,2.376
23.2800,2.446
23.3200,2.400
23.3600,2.369
23.4000,2.266
23.4400,2.434
23.4800,2.431
23.5200,2.443
23.5600,2.382
23.6000,2.383
23.6400,2.348
23.6800,2.380
23.7200,2.348
23.7600,2.410
23.8000,2.541
23.8400,2.347
23.8800,2.418
23.9200,2.358
23.9600,2.453
24.0000,2.403
24.0400,2.341
24.0800,2.339
24.1200,2.478
24.1600,2.424
24.2000,2.433
24.2400,2.411
24.2800,2.353
24.3200,2.380
24.3600,2.311
24.4000,2.324
24.4400,2.272
24.4800,2.263
24.5200,2.380
24.5600,2.389
24.6000,2.338
24.6400,2.318
24.6800,2.347
24.7200,2.333
24.7600,2.333
24.8000,2.334
24.8400,2.277
24.8800,2.286
24.9200,2.279
24.9600,2.330
25.0000,2.321
25.0400,2.279
25.0800,2.266
25.1200,2.309
25.1600,2.207
25.2000,2.265
25.2400,2.241
25.2800,2.207
25.3200,2.233
25.3600,2.265
25.4000,2.288
25.4400,2.258
25.4800,2.234
25.5200,2.276
25.5600,2.268
25.6000,2.342
25.6400,2.225
25.6800,2.158
25.7200,2.291
25.7600,2.284
25.8000,2.217
25.8400,2.326
25.8800,2.226
25.9200,2.248
25.9600,2.205
26.0000,2.259
26.0400,2.255
26.0800,2.264
26.1200,2.279
26.1600,2.218
26.2000,2.312
26.2400,2.353
26.2800,2.254
26.3200,2.411
26.3600,2.352
26.4000,2.392
26.4400,2.420
26.4800,2.632
26.5200,2.679
26.5600,3.035
26.6000,3.314
26.6400,3.528
26.6800,3.741
26.7200,3.590
26.7600,3.157
26.8000,2.961
26.8400,2.633
26.8800,2.545
26.9200,2.527
26.9600,2.566
27.0000,2.462
27.0400,2.418
27.0800,2.278
27.1200,2.187
27.1600,2.199
27.2000,2.151
27.2400,2.177
27.2800,2.125
27.3200,2.209
27.3600,2.194
27.4000,2.152
27.4400,2.174
27.4800,2.259
27.5200,2.257
27.5600,2.189
27.6000,2.205
27.6400,2.135
27.6800,2.136
27.7200,2.065
27.7600,2.062
27.8000,2.048
27.8400,2.079
27.8800,2.122
27.9200,2.027
27.9600,2.098
28.0000,2.055
28.0400,2.142
28.0800,2.106
28.1200,2.113
28.1600,2.131
28.2000,2.135
28.2400,2.111
28.2800,2.135
28.3200,2.029
28.3600,2.043
28.4000,2.067
28.4400,2.075
28.4800,2.010
28.5200,2.105
28.5600,2.138
28.6000,2.073
28.6400,2.048
28.6800,2.050
28.7200,2.138
28.7600,2.096
28.8000,2.134
28.8400,2.151
28.8800,2.099
28.9200,2.128
28.9600,2.110
29.0000,2.108
29.0400,2.199
29.0800,2.271
29.1200,2.262
29.1600,2.264
29.2000,2.458
29.2400,2.410
29.2800,2.398
29.3200,2.538
29.3600,2.742
29.4000,2.992
29.4400,3.108
29.4800,3.176
29.5200,3.299
29.5600,3.545
29.6000,3.864
29.6400,4.304
29.6800,5.034
29.7200,5.887
29.7600,6.768
29.8000,7.872
29.8400,8.813
29.8800,9.679
29.9200,9.614
29.9600,8.940
30.0000,8.019
30.0400,6.683
30.0800,5.661
30.1200,4.592
30.1600,3.995
30.2000,3.382
30.2400,3.171
30.2800,2.907
30.3200,2.570
30.3600,2.475
30.4000,2.421
30.4400,2.256
30.4800,2.361
30.5200,2.285
30.5600,2.294
30.6000,2.443
30.6400,2.889
30.6800,3.591
30.7200,3.651
30.7600,3.178
30.8000,2.814
30.8400,2.357
30.8800,2.177
30.9200,1.978
30.9600,2.012
31.0000,2.027
31.0400,2.058
31.0800,1.945
31.1200,1.967
31.1600,2.041
31.2000,1.990
31.2400,2.006
31.2800,2.091
31.3200,2.073
31.3600,2.131
31.4000,1.935
31.4400,1.838
31.4800,1.866
31.5200,1.901
31.5600,1.890
31.6000,1.864
31.6400,1.864
31.6800,1.982
31.7200,1.938
31.7600,2.117
31.8000,2.203
31.8400,2.243
31.8800,2.136
31.9200,2.078
31.9600,1.991
32.0000,2.013
32.0400,2.285
32.0800,2.495
32.1200,2.354
32.1600,2.245
32.2000,1.938
32.2400,1.840
32.2800,1.834
32.3200,1.885
32.3600,1.822
32.4000,1.828
32.4400,1.885
32.4800,1.858
32.5200,1.834
32.5600,1.825
32.6000,1.811
32.6400,1.827
32.6800,1.688
32.7200,1.744
32.7600,1.821
32.8000,1.873
32.8400,1.801
32.8800,1.797
32.9200,1.825
32.9600,1.869
33.0000,1.914
33.0400,1.882
33.0800,1.905
33.1200,2.054
33.1600,2.102
33.2000,2.281
33.2400,2.598
33.2800,3.192
33.3200,3.795
33.3600,3.998
33.4000,4.001
33.4400,3.771
33.4800,3.248
33.5200,2.616
33.5600,2.453
33.6000,2.218
33.6400,2.093
33.6800,2.122
33.7200,2.074
33.7600,2.166
33.8000,2.088
33.8400,2.319
33.8800,2.482
33.9200,2.576
33.9600,2.521
34.0000,2.543
34.0400,2.399
34.0800,2.291
34.1200,2.088
34.1600,2.046
34.2000,1.897
34.2400,1.850
34.2800,1.833
34.3200,1.784
34.3600,1.700
34.4000,1.696
34.4400,1.615
34.4800,1.718
34.5200,1.670
34.5600,1.671
34.6000,1.644
34.6400,1.616
34.6800,1.613
34.7200,1.702
34.7600,1.519
34.8000,1.587
34.8400,1.584
34.8800,1.518
34.9200,1.627
34.9600,1.501
35.0000,1.646
35.0400,1.625
35.0800,1.527
35.1200,1.530
35.1600,1.566
35.2000,1.500
35.2400,1.554
35.2800,1.571
35.3200,1.480
35.3600,1.538
35.4000,1.503
35.4400,1.536
35.4800,1.531
35.5200,1.531
35.5600,1.482
35.6000,1.470
35.6400,1.530
35.6800,1.510
35.7200,1.516
35.7600,1.552
35.8000,1.539
35.8400,1.450
35.8800,1.446
35.9200,1.547
35.9600,1.527
36.0000,1.549
36.0400,1.528
36.0800,1.526
36.1200,1.527
36.1600,1.476
36.2000,1.480
36.2400,1.578
36.2800,1.537
36.3200,1.490
36.3600,1.545
36.4000,1.456
36.4400,1.549
36.4800,1.498
36.5200,1.494
36.5600,1.560
36.6000,1.548
36.6400,1.617
36.6800,1.590
36.7200,1.609
36.7600,1.589
36.8000,1.622
36.8400,1.645
36.8800,1.725
36.9200,1.802
36.9600,1.781
37.0000,1.922
37.0400,1.959
37.0800,2.092
37.1200,2.126
37.1600,2.057
37.2000,1.967
37.2400,2.011
37.2800,1.935
37.3200,1.910
37.3600,1.856
37.4000,1.768
37.4400,1.711
37.4800,1.538
37.5200,1.645
37.5600,1.442
37.6000,1.517
37.6400,1.482
37.6800,1.509
37.7200,1.455
37.7600,1.444
37.8000,1.414
37.8400,1.515
37.8800,1.459
37.9200,1.530
37.9600,1.563
38.0000,1.502
38.0400,1.556
38.0800,1.581
38.1200,1.586
38.1600,1.530
38.2000,1.469
38.2400,1.417
38.2800,1.466
38.3200,1.405
38.3600,1.400
38.4000,1.417
38.4400,1.318
38.4800,1.268
38.5200,1.326
38.5600,1.317
38.6000,1.369
38.6400,1.304
38.6800,1.360
38.7200,1.399
38.7600,1.302
38.8000,1.355
38.8400,1.348
38.8800,1.321
38.9200,1.329
38.9600,1.400
39.0000,1.355
39.0400,1.349
39.0800,1.379
39.1200,1.433
39.1600,1.414
39.2000,1.478
39.2400,1.543
39.2800,1.729
39.3200,1.733
39.3600,1.757
39.4000,1.740
39.4400,1.731
39.4800,1.678
39.5200,1.759
39.5600,1.818
39.6000,1.698
39.6400,1.554
39.6800,1.537
39.7200,1.406
39.7600,1.364
39.8000,1.306
39.8400,1.317
39.8800,1.345
39.9200,1.399
39.9600,1.535
40.0000,1.745
40.0400,1.948
40.0800,1.945
40.1200,1.860
40.1600,1.740
40.2000,1.573
40.2400,1.421
40.2800,1.360
40.3200,1.310
40.3600,1.290
40.4000,1.282
40.4400,1.378
40.4800,1.270
40.5200,1.387
40.5600,1.443
40.6000,1.649
40.6400,1.980
40.6800,2.100
40.7200,2.042
40.7600,1.987
40.8000,1.767
40.8400,1.550
40.8800,1.495
40.9200,1.439
40.9600,1.428
41.0000,1.425
41.0400,1.414
41.0800,1.305
41.1200,1.207
41.1600,1.244
41.2000,1.288
41.2400,1.235
41.2800,1.250
41.3200,1.216
41.3600,1.251
41.4000,1.237
41.4400,1.241
41.4800,1.218
41.5200,1.227
41.5600,1.197
41.6000,1.217
41.6400,1.268
41.6800,1.268
41.7200,1.293
41.7600,1.317
41.8000,1.281
41.8400,1.235
41.8800,1.236
41.9200,1.288
41.9600,1.240
42.0000,1.335
42.0400,1.324
42.0800,1.303
42.1200,1.344
42.1600,1.351
42.2000,1.309
42.2400,1.226
42.2800,1.256
42.3200,1.257
42.3600,1.184
42.4000,1.223
42.4400,1.183
42.4800,1.235
42.5200,1.171
42.5600,1.211
42.6000,1.204
42.6400,1.190
42.6800,1.182
42.7200,1.210
42.7600,1.144
42.8000,1.168
42.8400,1.183
42.8800,1.107
42.9200,1.155
42.9600,1.164
43.0000,1.126
43.0400,1.148
43.0800,1.095
43.1200,1.109
43.1600,1.148
43.2000,1.191
43.2400,1.162
43.2800,1.109
43.3200,1.152
43.3600,1.028
43.4000,1.098
43.4400,1.066
43.4800,1.060
43.5200,1.097
43.5600,1.060
43.6000,0.999
43.6400,1.060
43.6800,1.081
43.7200,1.014
43.7600,1.006
43.8000,1.052
43.8400,0.990
43.8800,1.120
43.9200,1.229
43.9600,1.185
44.0000,1.105
44.0400,1.205
44.0800,1.202
44.1200,1.068
44.1600,1.058
44.2000,1.039
44.2400,1.114
44.2800,1.068
44.3200,1.116
44.3600,1.051
44.4000,1.053
44.4400,1.029
44.4800,1.093
44.5200,1.076
44.5600,1.073
44.6000,1.095
44.6400,1.109
44.6800,1.082
44.7200,1.159
44.7600,1.276
44.8000,1.458
44.8400,1.436
44.8800,1.335
44.9200,1.472
44.9600,1.696
45.0000,1.416
45.0400,1.260
45.0800,1.222
45.1200,1.118
45.1600,1.043
45.2000,1.017
45.2400,0.960
45.2800,1.061
45.3200,1.046
45.3600,1.088
45.4000,1.061
45.4400,1.084
45.4800,1.076
45.5200,1.079
45.5600,1.066
45.6000,1.012
45.6400,0.983
45.6800,0.968
45.7200,0.934
45.7600,0.939
45.8000,0.928
45.8400,1.010
45.8800,0.965
45.9200,0.966
45.9600,0.937
46.0000,0.983
46.0400,0.940
46.0800,0.941
46.1200,0.895
46.1600,0.942
46.2000,0.912
46.2400,0.929
46.2800,0.994
46.3200,0.958
46.3600,0.957
46.4000,0.873
46.4400,0.905
46.4800,0.946
46.5200,0.992
46.5600,1.036
46.6000,1.044
46.6400,1.036
46.6800,1.092
46.7200,1.122
46.7600,1.145
46.8000,1.180
46.8400,1.141
46.8800,1.050
46.9200,1.095
46.9600,1.049
47.0000,1.032
47.0400,0.963
47.0800,0.957
47.1200,0.918
47.1600,0.964
47.2000,0.931
47.2400,0.948
47.2800,1.052
47.3200,1.002
47.3600,1.025
47.4000,1.017
47.4400,1.054
47.4800,1.156
47.5200,1.108
47.5600,1.186
47.6000,1.168
47.6400,1.228
47.6800,1.227
47.7200,1.294
47.7600,1.293
47.8000,1.247
47.8400,1.307
47.8800,1.356
47.9200,1.312
47.9600,1.324
48.0000,1.211
48.0400,1.261
48.0800,1.236
48.1200,1.156
48.1600,1.135
48.2000,1.090
48.2400,1.011
48.2800,0.995
48.3200,1.047
48.3600,1.000
48.4000,0.981
48.4400,0.921
48.4800,0.958
48.5200,0.948
48.5600,0.929
48.6000,0.923
48.6400,0.917
48.6800,0.911
48.7200,0.899
48.7600,0.890
48.8000,0.907
48.8400,0.810
48.8800,0.927
48.9200,0.905
48.9600,0.954
49.0000,0.957
49.0400,0.968
49.0800,1.041
49.1200,1.028
49.1600,0.946
49.2000,1.074
49.2400,0.958
49.2800,0.935
49.3200,0.842
49.3600,0.812
49.4000,0.857
49.4400,0.926
49.4800,0.925
49.5200,0.908
49.5600,0.826
49.6000,0.878
49.6400,0.855
49.6800,0.862
49.7200,0.859
49.7600,0.864
49.8000,0.905
49.8400,0.888
49.8800,0.894
49.9200,0.923
49.9600,0.858
50.0000,0.915
50.0400,0.872
50.0800,0.879
50.1200,0.937
50.1600,0.952
50.2000,0.973
50.2400,0.970
50.2800,1.013
50.3200,1.058
50.3600,1.147
50.4000,1.117
50.4400,1.218
50.4800,1.306
50.5200,1.415
50.5600,1.571
50.6000,1.749
50.6400,1.828
50.6800,1.966
50.7200,1.970
50.7600,2.196
50.8000,2.036
50.8400,1.873
50.8800,1.847
50.9200,1.678
50.9600,1.471
51.0000,1.328
51.0400,1.184
51.0800,1.170
51.1200,1.091
51.1600,1.062
51.2000,1.033
51.2400,0.973
51.2800,0.915
51.3200,0.940
51.3600,0.965
51.4000,0.879
51.4400,0.916
51.4800,0.885
51.5200,0.930
51.5600,0.918
51.6000,0.969
51.6400,0.989
51.6800,1.063
51.7200,1.116
51.7600,1.178
51.8000,1.226
51.8400,1.263
51.8800,1.277
51.9200,1.254
51.9600,1.256
52.0000,1.170
52.0400,1.106
52.0800,1.038
52.1200,0.950
52.1600,0.934
52.2000,0.898
52.2400,0.831
52.2800,0.896
52.3200,0.868
52.3600,0.810
52.4000,0.786
52.4400,0.798
52.4800,0.782
52.5200,0.787
52.5600,0.850
52.6000,0.809
52.6400,0.724
52.6800,0.747
52.7200,0.836
52.7600,0.830
52.8000,0.835
52.8400,0.769
52.8800,0.757
52.9200,0.773
52.9600,0.765
53.0000,0.782
53.0400,0.774
53.0800,0.726
53.1200,0.749
53.1600,0.748
53.2000,0.778
53.2400,0.804
53.2800,0.792
53.3200,0.780
53.3600,0.727
53.4000,0.751
53.4400,0.692
53.4800,0.718
53.5200,0.743
53.5600,0.762
53.6000,0.732
53.6400,0.744
53.6800,0.696
53.7200,0.738
53.7600,0.723
53.8000,0.697
53.8400,0.711
53.8800,0.691
53.9200,0.732
53.9600,0.696
54.0000,0.745
54.0400,0.735
54.0800,0.737
54.1200,0.747
54.1600,0.699
54.2000,0.758
54.2400,0.708
54.2800,0.700
54.3200,0.719
54.3600,0.767
54.4000,0.715
54.4400,0.727
54.4800,0.712
54.5200,0.698
54.5600,0.725
54.6000,0.694
54.6400,0.718
54.6800,0.768
54.7200,0.743
54.7600,0.770
54.8000,0.808
54.8400,0.779
54.8800,0.808
54.9200,0.782
54.9600,0.775
55.0000,0.783
55.0400,0.757
55.0800,0.782
55.1200,0.682
55.1600,0.718
55.2000,0.699
55.2400,0.667
55.2800,0.713
55.3200,0.721
55.3600,0.709
55.4000,0.766
55.4400,0.718
55.4800,0.673
55.5200,0.723
55.5600,0.724
55.6000,0.732
55.6400,0.680
55.6800,0.656
55.7200,0.667
55.7600,0.664
55.8000,0.685
55.8400,0.691
55.8800,0.708
55.9200,0.669
55.9600,0.670
56.0000,0.704
56.0400,0.689
56.0800,0.678
56.1200,0.649
56.1600,0.698
56.2000,0.682
56.2400,0.702
56.2800,0.703
56.3200,0.687
56.3600,0.655
56.4000,0.686
56.4400,0.664
56.4800,0.684
56.5200,0.684
56.5600,0.723
56.6000,0.745
56.6400,0.675
56.6800,0.747
56.7200,0.754
56.7600,0.738
56.8000,0.755
56.8400,0.790
56.8800,0.758
56.9200,0.817
56.9600,0.862
57.0000,0.814
57.0400,0.871
57.0800,0.903
57.1200,0.918
57.1600,1.011
57.2000,1.062
57.2400,1.157
57.2800,1.188
57.3200,1.270
57.3600,1.372
57.4000,1.449
57.4400,1.518
57.4800,1.459
57.5200,1.473
57.5600,1.502
57.6000,1.414
57.6400,1.374
57.6800,1.277
57.7200,1.179
57.7600,1.067
57.8000,1.079
57.8400,0.911
57.8800,0.907
57.9200,0.896
57.9600,0.814
58.0000,0.813
58.0400,0.803
58.0800,0.754
58.1200,0.775
58.1600,0.747
58.2000,0.699
58.2400,0.727
58.2800,0.711
58.3200,0.735
58.3600,0.700
58.4000,0.703
58.4400,0.661
58.4800,0.680
58.5200,0.663
58.5600,0.680
58.6000,0.699
58.6400,0.722
58.6800,0.669
58.7200,0.705
58.7600,0.704
58.8000,0.689
58.8400,0.701
58.8800,0.718
58.9200,0.758
58.9600,0.729
59.0000,0.728
59.0400,0.721
59.0800,0.727
59.1200,0.689
59.1600,0.676
59.2000,0.696
59.2400,0.609
59.2800,0.636
59.3200,0.615
59.3600,0.600
59.4000,0.587
59.4400,0.620
59.4800,0.628
59.5200,0.602
59.5600,0.648
59.6000,0.610
59.6400,0.632
59.6800,0.612
59.7200,0.643
59.7600,0.614
59.8000,0.641
59.8400,0.636
59.8800,0.618
59.9200,0.639
59.9600,0.627
60.0000,0.608
60.0400,0.617
60.0800,0.608
60.1200,0.620
60.1600,0.599
60.2000,0.619
60.2400,0.624
60.2800,0.621
60.3200,0.691
60.3600,0.665
60.4000,0.638
60.4400,0.643
60.4800,0.650
60.5200,0.629
60.5600,0.610
60.6000,0.593
60.6400,0.622
60.6800,0.621
60.7200,0.609
60.7600,0.658
60.8000,0.647
60.8400,0.649
60.8800,0.635
60.9200,0.717
60.9600,0.704
61.0000,0.640
61.0400,0.645
61.0800,0.675
61.1200,0.675
61.1600,0.706
61.2000,0.696
61.2400,0.600
61.2800,0.661
61.3200,0.649
61.3600,0.676
61.4000,0.668
61.4400,0.638
61.4800,0.675
61.5200,0.676
61.5600,0.673
61.6000,0.713
61.6400,0.705
61.6800,0.817
61.7200,0.837
61.7600,0.867
61.8000,0.806
61.8400,0.866
61.8800,0.844
61.9200,0.909
61.9600,0.976
62.0000,0.952
62.0400,0.991
62.0800,1.019
62.1200,0.986
62.1600,0.960
62.2000,0.950
62.2400,0.997
62.2800,1.044
62.3200,0.963
62.3600,1.006
62.4000,0.964
62.4400,0.933
62.4800,0.949
62.5200,0.962
62.5600,0.967
62.6000,0.964
62.6400,0.875
62.6800,0.811
62.7200,0.771
62.7600,0.769
62.8000,0.795
62.8400,0.649
62.8800,0.692
62.9200,0.680
62.9600,0.678
63.0000,0.613
63.0400,0.636
63.0800,0.639
63.1200,0.616
63.1600,0.642
63.2000,0.665
63.2400,0.614
63.2800,0.616
63.3200,0.608
63.3600,0.623
63.4000,0.575
63.4400,0.597
63.4800,0.584
63.5200,0.589
63.5600,0.543
63.6000,0.528
63.6400,0.581
63.6800,0.568
63.7200,0.562
63.7600,0.608
63.8000,0.610
63.8400,0.642
63.8800,0.641
63.9200,0.615
63.9600,0.582
64.0000,0.592
64.0400,0.630
64.0800,0.595
64.1200,0.562
64.1600,0.568
64.2000,0.611
64.2400,0.534
64.2800,0.556
64.3200,0.540
64.3600,0.608
64.4000,0.573
64.4400,0.614
64.4800,0.559
64.5200,0.584
64.5600,0.593
64.6000,0.661
64.6400,0.659
64.6800,0.661
64.7200,0.628
64.7600,0.665
64.8000,0.651
64.8400,0.658
64.8800,0.691
64.9200,0.655
64.9600,0.668
65.0000,0.648
65.0400,0.654
65.0800,0.632
65.1200,0.637
65.1600,0.683
65.2000,0.650
65.2400,0.726
65.2800,0.666
65.3200,0.689
65.3600,0.655
65.4000,0.670
65.4400,0.671
65.4800,0.667
65.5200,0.663
65.5600,0.683
65.6000,0.633
65.6400,0.632
65.6800,0.678
65.7200,0.641
65.7600,0.687
65.8000,0.706
65.8400,0.723
65.8800,0.716
65.9200,0.741
65.9600,0.725
66.0000,0.795
66.0400,0.817
66.0800,0.827
66.1200,0.809
66.1600,0.802
66.2000,0.900
66.2400,0.860
66.2800,0.841
66.3200,0.862
66.3600,0.831
66.4000,0.812
66.4400,0.812
66.4800,0.860
66.5200,0.832
66.5600,0.803
66.6000,0.844
66.6400,0.807
66.6800,0.822
66.7200,0.802
66.7600,0.828
66.8000,0.798
66.8400,0.886
66.8800,0.867
66.9200,0.899
66.9600,0.888
67.0000,0.902
67.0400,0.898
67.0800,1.025
67.1200,1.003
67.1600,1.033
67.2000,1.020
67.2400,0.996
67.2800,1.120
67.3200,1.047
67.3600,1.081
67.4000,1.115
67.4400,1.135
67.4800,1.170
67.5200,1.217
67.5600,1.222
67.6000,1.220
67.6400,1.230
67.6800,1.229
67.7200,1.250
67.7600,1.303
67.8000,1.404
67.8400,1.301
67.8800,1.355
67.9200,1.416
67.9600,1.429
68.0000,1.426
68.0400,1.492
68.0800,1.570
68.1200,1.594
68.1600,1.635
68.2000,1.675
68.2400,1.731
68.2800,1.811
68.3200,1.882
68.3600,1.819
68.4000,1.949
68.4400,1.950
68.4800,2.093
68.5200,2.243
68.5600,2.257
68.6000,2.521
68.6400,2.612
68.6800,2.789
68.7200,3.057
68.7600,3.879
68.8000,4.968
68.8400,6.228
68.8800,6.730
68.9200,6.814
68.9600,7.421
69.0000,9.097
69.0400,13.827
69.0800,25.234
69.1200,79.248
69.1600,343.871
69.2000,461.031
69.2400,206.318
69.2800,54.736
69.3200,63.143
69.3600,190.692
69.4000,233.292
69.4400,99.499
69.4800,25.572
69.5200,12.235
69.5600,8.381
69.6000,6.585
69.6400,5.433
69.6800,4.604
69.7200,4.047
69.7600,3.597
69.8000,3.342
69.8400,3.159
69.8800,3.008
69.9200,2.824
69.9600,2.677
70.0000,2.579
70.0400,2.353
70.0800,2.405
70.1200,2.185
70.1600,2.181
70.2000,2.089
70.2400,1.976
70.2800,1.885
70.3200,1.891
70.3600,1.740
70.4000,1.738
70.4400,1.623
70.4800,1.596
70.5200,1.504
70.5600,1.467
70.6000,1.407
70.6400,1.477
70.6800,1.379
70.7200,1.317
70.7600,1.337
70.8000,1.293
70.8400,1.237
70.8800,1.172
70.9200,1.164
70.9600,1.111
71.0000,1.125
71.0400,1.127
71.0800,1.100
71.1200,1.087
71.1600,1.066
71.2000,1.083
71.2400,1.033
71.2800,1.030
71.3200,1.001
71.3600,0.970
71.4000,0.929
71.4400,0.901
71.4800,0.906
71.5200,0.888
71.5600,0.864
71.6000,0.873
71.6400,0.842
71.6800,0.787
71.7200,0.741
71.7600,0.769
71.8000,0.768
71.8400,0.734
71.8800,0.706
71.9200,0.725
71.9600,0.724
72.0000,0.746
72.0400,0.750
72.0800,0.769
72.1200,0.744
72.1600,0.742
72.2000,0.739
72.2400,0.680
72.2800,0.653
72.3200,0.706
72.3600,0.650
72.4000,0.648
72.4400,0.685
72.4800,0.641
72.5200,0.628
72.5600,0.568
72.6000,0.577
72.6400,0.603
72.6800,0.607
72.7200,0.581
72.7600,0.586
72.8000,0.519
72.8400,0.556
72.8800,0.533
72.9200,0.558
72.9600,0.606
73.0000,0.567
73.0400,0.582
73.0800,0.541
73.1200,0.553
73.1600,0.551
73.2000,0.553
73.2400,0.557
73.2800,0.559
73.3200,0.515
73.3600,0.494
73.4000,0.508
73.4400,0.515
73.4800,0.493
73.5200,0.479
73.5600,0.422
73.6000,0.431
73.6400,0.467
73.6800,0.476
73.7200,0.426
73.7600,0.425
73.8000,0.473
73.8400,0.449
73.8800,0.446
73.9200,0.450
73.9600,0.406
74.0000,0.415
74.0400,0.394
74.0800,0.419
74.1200,0.433
74.1600,0.434
74.2000,0.426
74.2400,0.453
74.2800,0.422
74.3200,0.421
74.3600,0.460
74.4000,0.401
74.4400,0.374
74.4800,0.423
74.5200,0.419
74.5600,0.416
74.6000,0.386
74.6400,0.410
74.6800,0.420
74.7200,0.425
74.7600,0.422
74.8000,0.425
74.8400,0.483
74.8800,0.490
74.9200,0.473
74.9600,0.474
75.0000,0.471
75.0400,0.446
75.0800,0.438
75.1200,0.451
75.1600,0.456
75.2000,0.430
75.2400,0.426
75.2800,0.426
75.3200,0.403
75.3600,0.380
75.4000,0.387
75.4400,0.385
75.4800,0.385
75.5200,0.340
75.5600,0.387
75.6000,0.344
75.6400,0.357
75.6800,0.375
75.7200,0.364
75.7600,0.359
75.8000,0.377
75.8400,0.315
75.8800,0.337
75.9200,0.368
75.9600,0.350
76.0000,0.353
76.0400,0.382
76.0800,0.320
76.1200,0.358
76.1600,0.375
76.2000,0.329
76.2400,0.359
76.2800,0.349
76.3200,0.342
76.3600,0.390
76.4000,0.349
76.4400,0.361
76.4800,0.368
76.5200,0.354
76.5600,0.350
76.6000,0.356
76.6400,0.384
76.6800,0.363
76.7200,0.381
76.7600,0.398
76.8000,0.357
76.8400,0.388
76.8800,0.406
76.9200,0.367
76.9600,0.362
77.0000,0.334
77.0400,0.389
77.0800,0.366
77.1200,0.347
77.1600,0.356
77.2000,0.354
77.2400,0.372
77.2800,0.361
77.3200,0.377
77.3600,0.358
77.4000,0.355
77.4400,0.347
77.4800,0.347
77.5200,0.372
77.5600,0.391
77.6000,0.367
77.6400,0.379
77.6800,0.405
77.7200,0.397
77.7600,0.397
77.8000,0.414
77.8400,0.415
77.8800,0.356
77.9200,0.392
77.9600,0.370
78.0000,0.409
78.0400,0.375
78.0800,0.403
78.1200,0.370
78.1600,0.357
78.2000,0.372
78.2400,0.389
78.2800,0.378
78.3200,0.382
78.3600,0.369
78.4000,0.411
78.4400,0.395
78.4800,0.395
78.5200,0.406
78.5600,0.373
78.6000,0.363
78.6400,0.399
78.6800,0.381
78.7200,0.391
78.7600,0.394
78.8000,0.400
78.8400,0.406
78.8800,0.395
78.9200,0.379
78.9600,0.392
79.0000,0.386
79.0400,0.398
79.0800,0.374
79.1200,0.401
79.1600,0.403
79.2000,0.353
79.2400,0.358
79.2800,0.321
79.3200,0.321
79.3600,0.359
79.4000,0.370
79.4400,0.373
79.4800,0.380
79.5200,0.370
79.5600,0.426
79.6000,0.443
79.6400,0.437
79.6800,0.357
79.7200,0.380
79.7600,0.370
79.8000,0.387
79.8400,0.350
79.8800,0.372
79.9200,0.384
79.9600,0.366
80.0000,0.343
