theta,intensity
5.0000,5.516
5.0400,5.486
5.0800,5.519
5.1200,5.586
5.1600,5.474
5.2000,5.286
5.2400,5.286
5.2800,5.206
5.3200,5.248
5.3600,5.173
5.4000,5.002
5.4400,5.003
5.4800,5.061
5.5200,4.826
5.5600,4.805
5.6000,4.702
5.6400,4.766
5.6800,4.583
5.7200,4.519
5.7600,4.477
5.8000,4.409
5.8400,4.427
5.8800,4.353
5.9200,4.376
5.9600,4.244
6.0000,4.159
6.0400,4.302
6.0800,4.157
6.1200,4.138
6.1600,4.152
6.2000,4.160
6.2400,4.136
6.2800,4.127
6.3200,4.209
6.3600,4.144
6.4000,4.200
6.4400,4.122
6.4800,4.239
6.5200,4.166
6.5600,4.082
6.6000,4.061
6.6400,3.989
6.6800,4.102
6.7200,4.051
6.7600,4.093
6.8000,4.049
6.8400,4.066
6.8800,4.108
6.9200,4.109
6.9600,4.045
7.0000,3.988
7.0400,4.033
7.0800,4.085
7.1200,3.994
7.1600,3.967
7.2000,4.033
7.2400,4.048
7.2800,3.954
7.3200,4.062
7.3600,3.998
7.4000,3.947
7.4400,3.934
7.4800,3.988
7.5200,3.948
7.5600,3.893
7.6000,3.853
7.6400,3.858
7.6800,3.924
7.7200,3.934
7.7600,3.934
7.8000,3.970
7.8400,3.899
7.8800,3.912
7.9200,3.982
7.9600,3.848
8.0000,3.922
8.0400,3.927
8.0800,3.829
8.1200,3.846
8.1600,3.806
8.2000,3.829
8.2400,3.818
8.2800,3.823
8.3200,3.883
8.3600,3.834
8.4000,3.780
8.4400,3.742
8.4800,3.823
8.5200,3.809
8.5600,3.788
8.6000,3.817
8.6400,3.818
8.6800,3.941
8.7200,3.869
8.7600,3.842
8.8000,3.794
8.8400,3.811
8.8800,3.825
8.9200,3.763
8.9600,3.768
9.0000,3.919
9.0400,3.770
9.0800,3.711
9.1200,3.840
9.1600,3.793
9.2000,3.732
9.2400,3.798
9.2800,3.725
9.3200,3.672
9.3600,3.716
9.4000,3.781
9.4400,3.694
9.4800,3.721
9.5200,3.711
9.5600,3.781
9.6000,3.841
9.6400,3.636
9.6800,3.707
9.7200,3.701
9.7600,3.745
9.8000,3.753
9.8400,3.547
9.8800,3.701
9.9200,3.663
9.9600,3.552
10.0000,3.583
10.0400,3.633
10.0800,3.733
10.1200,3.671
10.1600,3.733
10.2000,3.683
10.2400,3.652
10.2800,3.675
10.3200,3.693
10.3600,3.605
10.4000,3.649
10.4400,3.671
10.4800,3.685
10.5200,3.644
10.5600,3.535
10.6000,3.568
10.6400,3.613
10.6800,3.613
10.7200,3.617
10.7600,3.659
10.8000,3.551
10.8400,3.622
10.8800,3.609
10.9200,3.666
10.9600,3.549
11.0000,3.591
11.0400,3.555
11.0800,3.529
11.1200,3.588
11.1600,3.505
11.2000,3.605
11.2400,3.425
11.2800,3.469
11.3200,3.533
11.3600,3.574
11.4000,3.535
11.4400,3.563
11.4800,3.534
11.5200,3.484
11.5600,3.568
11.6000,3.485
11.6400,3.521
11.6800,3.492
11.7200,3.405
11.7600,3.460
11.8000,3.508
11.8400,3.637
11.8800,3.472
11.9200,3.513
11.9600,3.531
12.0000,3.414
12.0400,3.409
12.0800,3.430
12.1200,3.383
12.1600,3.465
12.2000,3.529
12.2400,3.387
12.2800,3.447
12.3200,3.554
12.3600,3.442
12.4000,3.443
12.4400,3.399
12.4800,3.421
12.5200,3.459
12.5600,3.452
12.6000,3.454
12.6400,3.399
12.6800,3.465
12.7200,3.368
12.7600,3.319
12.8000,3.446
12.8400,3.415
12.8800,3.309
12.9200,3.366
12.9600,3.343
13.0000,3.419
13.0400,3.357
13.0800,3.379
13.1200,3.432
13.1600,3.277
13.2000,3.433
13.2400,3.349
13.2800,3.369
13.3200,3.349
13.3600,3.300
13.4000,3.327
13.4400,3.350
13.4800,3.400
13.5200,3.310
13.5600,3.321
13.6000,3.285
13.6400,3.238
13.6800,3.307
13.7200,3.240
13.7600,3.286
13.8000,3.270
13.8400,3.296
13.8800,3.223
13.9200,3.270
13.9600,3.342
14.0000,3.356
14.0400,3.244
14.0800,3.284
14.1200,3.216
14.1600,3.283
14.2000,3.243
14.2400,3.286
14.2800,3.267
14.3200,3.296
14.3600,3.203
14.4000,3.215
14.4400,3.280
14.4800,3.205
14.5200,3.226
14.5600,3.242
14.6000,3.229
14.6400,3.220
14.6800,3.217
14.7200,3.268
14.7600,3.193
14.8000,3.138
14.8400,3.191
14.8800,3.222
14.9200,3.212
14.9600,3.240
15.0000,3.170
15.0400,3.134
15.0800,3.152
15.1200,3.081
15.1600,3.157
15.2000,3.188
15.2400,3.121
15.2800,3.041
15.3200,3.256
15.3600,3.204
15.4000,3.182
15.4400,3.148
15.4800,3.116
15.5200,3.150
15.5600,3.115
15.6000,3.148
15.6400,3.187
15.6800,3.142
15.7200,3.030
15.7600,3.077
15.8000,3.069
15.8400,3.028
15.8800,2.992
15.9200,2.998
15.9600,3.156
16.0000,3.098
16.0400,3.126
16.0800,3.134
16.1200,3.074
16.1600,3.031
16.2000,3.121
16.2400,3.029
16.2800,2.994
16.3200,3.112
16.3600,3.109
16.4000,2.993
16.4400,3.073
16.4800,3.153
16.5200,3.075
16.5600,2.966
16.6000,3.057
16.6400,3.008
16.6800,3.000
16.7200,2.905
16.7600,2.988
16.8000,3.053
16.8400,3.006
16.8800,2.991
16.9200,3.053
16.9600,2.996
17.0000,2.972
17.0400,3.027
17.0800,2.957
17.1200,2.967
17.1600,2.975
17.2000,3.013
17.2400,2.937
17.2800,2.961
17.3200,3.020
17.3600,2.889
17.4000,2.899
17.4400,2.923
17.4800,2.930
17.5200,3.021
17.5600,2.906
17.6000,2.934
17.6400,2.895
17.6800,2.938
17.7200,2.950
17.7600,2.973
17.8000,2.891
17.8400,2.813
17.8800,2.875
17.9200,2.952
17.9600,2.916
18.0000,2.900
18.0400,2.915
18.0800,2.865
18.1200,2.954
18.1600,2.763
18.2000,2.883
18.2400,2.889
18.2800,2.794
18.3200,2.851
18.3600,2.838
18.4000,2.946
18.4400,2.887
18.4800,2.900
18.5200,2.927
18.5600,2.891
18.6000,2.898
18.6400,2.842
18.6800,2.844
18.7200,2.815
18.7600,2.865
18.8000,2.817
18.8400,2.834
18.8800,2.775
18.9200,2.888
18.9600,2.729
19.0000,2.859
19.0400,2.839
19.0800,2.794
19.1200,2.785
19.1600,2.787
19.2000,2.773
19.2400,2.790
19.2800,2.739
19.3200,2.753
19.3600,2.786
19.4000,2.760
19.4400,2.741
19.4800,2.719
19.5200,2.746
19.5600,2.802
19.6000,2.777
19.6400,2.718
19.6800,2.757
19.7200,2.797
19.7600,2.712
19.8000,2.750
19.8400,2.710
19.8800,2.734
19.9200,2.707
19.9600,2.638
20.0000,2.756
20.0400,2.669
20.0800,2.737
20.1200,2.597
20.1600,2.703
20.2000,2.754
20.2400,2.658
20.2800,2.709
20.3200,2.635
20.3600,2.695
20.4000,2.663
20.4400,2.627
20.4800,2.683
20.5200,2.563
20.5600,2.641
20.6000,2.596
20.6400,2.679
20.6800,2.565
20.7200,2.673
20.7600,2.622
20.8000,2.605
20.8400,2.681
20.8800,2.731
20.9200,2.646
20.9600,2.570
21.0000,2.634
21.0400,2.590
21.0800,2.689
21.1200,2.661
21.1600,2.765
21.2000,2.735
21.2400,2.647
21.2800,2.747
21.3200,2.811
21.3600,2.822
21.4000,2.917
21.4400,3.389
21.4800,4.164
21.5200,4.545
21.5600,4.100
21.6000,3.586
21.6400,3.016
21.6800,2.805
21.7200,2.735
21.7600,2.697
21.8000,2.702
21.8400,2.579
21.8800,2.584
21.9200,2.506
21.9600,2.607
22.0000,2.567
22.0400,2.579
22.0800,2.571
22.1200,2.527
22.1600,2.506
22.2000,2.429
22.2400,2.516
22.2800,2.482
22.3200,2.541
22.3600,2.522
22.4000,2.497
22.4400,2.502
22.4800,2.458
22.5200,2.508
22.5600,2.505
22.6000,2.536
22.6400,2.553
22.6800,2.481
22.7200,2.498
22.7600,2.492
22.8000,2.481
22.8400,2.397
22.8800,2.406
22.9200,2.478
22.9600,2.516
23.0000,2.441
23.0400,2.404
23.0800,2.411
23.1200,2.360
23.1600,2.381
23.2000,2.403
23.2400,2.464
23.2800,2.389
23.3200,2.395
23.3600,2.362
23.4000,2.395
23.4400,2.359
23.4800,2.399
23.5200,2.357
23.5600,2.389
23.6000,2.356
23.6400,2.386
23.6800,2.432
23.7200,2.354
23.7600,2.327
23.8000,2.302
23.8400,2.353
23.8800,2.292
23.9200,2.303
23.9600,2.440
24.0000,2.354
24.0400,2.326
24.0800,2.258
24.1200,2.332
24.1600,2.273
24.2000,2.369
24.2400,2.384
24.2800,2.311
24.3200,2.242
24.3600,2.311
24.4000,2.392
24.4400,2.292
24.4800,2.380
24.5200,2.334
24.5600,2.239
24.6000,2.198
24.6400,2.329
24.6800,2.328
24.7200,2.335
24.7600,2.296
24.8000,2.290
24.8400,2.315
24.8800,2.322
24.9200,2.279
24.9600,2.273
25.0000,2.245
25.0400,2.211
25.0800,2.256
25.1200,2.166
25.1600,2.250
25.2000,2.252
25.2400,2.274
25.2800,2.207
25.3200,2.265
25.3600,2.226
25.4000,2.233
25.4400,2.257
25.4800,2.250
25.5200,2.277
25.5600,2.250
25.6000,2.182
25.6400,2.223
25.6800,2.286
25.7200,2.209
25.7600,2.211
25.8000,2.222
25.8400,2.235
25.8800,2.164
25.9200,2.300
25.9600,2.109
26.0000,2.096
26.0400,2.141
26.0800,2.220
26.1200,2.122
26.1600,2.212
26.2000,2.200
26.2400,2.210
26.2800,2.202
26.3200,2.103
26.3600,2.148
26.4000,2.189
26.4400,2.194
26.4800,2.230
26.5200,2.074
26.5600,2.148
26.6000,2.139
26.6400,2.145
26.6800,2.197
26.7200,2.067
26.7600,2.161
26.8000,2.204
26.8400,2.029
26.8800,2.144
26.9200,2.174
26.9600,2.151
27.0000,2.155
27.0400,2.157
27.0800,2.128
27.1200,2.103
27.1600,2.079
27.2000,2.090
27.2400,2.144
27.2800,2.062
27.3200,2.070
27.3600,2.091
27.4000,2.074
27.4400,2.089
27.4800,2.097
27.5200,2.042
27.5600,2.163
27.6000,2.006
27.6400,2.014
27.6800,2.050
27.7200,2.068
27.7600,2.099
27.8000,1.998
27.8400,2.050
27.8800,2.045
27.9200,1.989
27.9600,2.025
28.0000,2.088
28.0400,1.986
28.0800,1.966
28.1200,1.996
28.1600,1.959
28.2000,2.037
28.2400,1.981
28.2800,2.059
28.3200,2.000
28.3600,1.973
28.4000,1.971
28.4400,2.088
28.4800,1.984
28.5200,1.999
28.5600,1.934
28.6000,2.046
28.6400,2.045
28.6800,2.004
28.7200,1.987
28.7600,2.045
28.8000,2.060
28.8400,1.952
28.8800,2.031
28.9200,2.056
28.9600,1.960
29.0000,1.959
29.0400,2.064
29.0800,2.016
29.1200,2.031
29.1600,2.005
29.2000,2.001
29.2400,2.004
29.2800,2.018
29.3200,2.083
29.3600,2.051
29.4000,1.972
29.4400,1.995
29.4800,2.015
29.5200,1.974
29.5600,2.087
29.6000,2.084
29.6400,2.006
29.6800,2.015
29.7200,2.026
29.7600,1.970
29.8000,2.104
29.8400,1.999
29.8800,2.099
29.9200,2.091
29.9600,2.105
30.0000,2.221
30.0400,2.116
30.0800,2.112
30.1200,2.164
30.1600,2.287
30.2000,2.247
30.2400,2.298
30.2800,2.454
30.3200,2.679
30.3600,2.794
30.4000,3.053
30.4400,3.547
30.4800,4.400
30.5200,6.625
30.5600,11.659
30.6000,15.569
30.6400,14.546
30.6800,11.710
30.7200,8.025
30.7600,5.175
30.8000,3.906
30.8400,3.268
30.8800,2.825
30.9200,2.733
30.9600,2.498
31.0000,2.385
31.0400,2.362
31.0800,2.354
31.1200,2.303
31.1600,2.205
31.2000,2.201
31.2400,2.206
31.2800,2.117
31.3200,2.125
31.3600,2.173
31.4000,2.130
31.4400,2.136
31.4800,2.130
31.5200,2.084
31.5600,2.138
31.6000,2.167
31.6400,2.245
31.6800,2.254
31.7200,2.193
31.7600,2.124
31.8000,2.118
31.8400,2.124
31.8800,2.137
31.9200,2.168
31.9600,2.059
32.0000,2.113
32.0400,2.075
32.0800,2.040
32.1200,2.060
32.1600,2.026
32.2000,2.046
32.2400,2.009
32.2800,1.965
32.3200,1.991
32.3600,2.032
32.4000,2.085
32.4400,2.003
32.4800,2.099
32.5200,1.947
32.5600,2.046
32.6000,1.936
32.6400,1.970
32.6800,2.034
32.7200,2.086
32.7600,2.113
32.8000,2.230
32.8400,2.617
32.8800,5.615
32.9200,12.034
32.9600,11.524
33.0000,8.741
33.0400,7.529
33.0800,4.902
33.1200,2.943
33.1600,2.139
33.2000,2.044
33.2400,2.048
33.2800,1.972
33.3200,1.902
33.3600,1.889
33.4000,1.895
33.4400,1.894
33.4800,1.927
33.5200,1.925
33.5600,1.915
33.6000,1.886
33.6400,1.823
33.6800,1.845
33.7200,1.853
33.7600,1.909
33.8000,1.872
33.8400,1.839
33.8800,1.862
33.9200,1.845
33.9600,1.806
34.0000,1.864
34.0400,1.904
34.0800,1.864
34.1200,1.877
34.1600,1.914
34.2000,1.902
34.2400,1.935
34.2800,1.866
34.3200,1.864
34.3600,1.843
34.4000,1.870
34.4400,1.952
34.4800,1.894
34.5200,1.887
34.5600,1.890
34.6000,1.886
34.6400,1.847
34.6800,1.833
34.7200,1.796
34.7600,1.740
34.8000,1.863
34.8400,1.813
34.8800,1.934
34.9200,1.858
34.9600,1.784
35.0000,1.834
35.0400,1.888
35.0800,1.893
35.1200,1.897
35.1600,1.938
35.2000,1.972
35.2400,2.087
35.2800,2.040
35.3200,2.208
35.3600,2.493
35.4000,3.020
35.4400,4.314
35.4800,5.154
35.5200,4.653
35.5600,4.164
35.6000,3.537
35.6400,2.731
35.6800,2.289
35.7200,2.113
35.7600,2.116
35.8000,1.899
35.8400,1.955
35.8800,1.872
35.9200,1.886
35.9600,1.935
36.0000,1.932
36.0400,1.896
36.0800,1.906
36.1200,1.902
36.1600,1.946
36.2000,1.958
36.2400,2.034
36.2800,2.800
36.3200,3.214
36.3600,2.840
36.4000,2.641
36.4400,2.409
36.4800,1.956
36.5200,1.827
36.5600,1.745
36.6000,1.721
36.6400,1.624
36.6800,1.658
36.7200,1.581
36.7600,1.739
36.8000,1.551
36.8400,1.612
36.8800,1.605
36.9200,1.577
36.9600,1.567
37.0000,1.534
37.0400,1.557
37.0800,1.516
37.1200,1.517
37.1600,1.558
37.2000,1.483
37.2400,1.489
37.2800,1.462
37.3200,1.559
37.3600,1.452
37.4000,1.499
37.4400,1.471
37.4800,1.412
37.5200,1.562
37.5600,1.501
37.6000,1.536
37.6400,1.637
37.6800,1.880
37.7200,1.985
37.7600,1.863
37.8000,1.695
37.8400,1.687
37.8800,1.582
37.9200,1.520
37.9600,1.435
38.0000,1.446
38.0400,1.421
38.0800,1.425
38.1200,1.440
38.1600,1.414
38.2000,1.404
38.2400,1.479
38.2800,1.345
38.3200,1.357
38.3600,1.343
38.4000,1.330
38.4400,1.416
38.4800,1.374
38.5200,1.313
38.5600,1.344
38.6000,1.386
38.6400,1.328
38.6800,1.309
38.7200,1.344
38.7600,1.281
38.8000,1.378
38.8400,1.396
38.8800,1.351
38.9200,1.350
38.9600,1.370
39.0000,1.456
39.0400,1.500
39.0800,2.201
39.1200,3.433
39.1600,3.286
39.2000,2.529
39.2400,2.492
39.2800,1.896
39.3200,1.403
39.3600,1.310
39.4000,1.275
39.4400,1.274
39.4800,1.320
39.5200,1.274
39.5600,1.291
39.6000,1.309
39.6400,1.278
39.6800,1.351
39.7200,1.336
39.7600,1.368
39.8000,1.330
39.8400,1.321
39.8800,1.286
39.9200,1.287
39.9600,1.310
40.0000,1.293
40.0400,1.240
40.0800,1.281
40.1200,1.226
40.1600,1.285
40.2000,1.204
40.2400,1.228
40.2800,1.174
40.3200,1.200
40.3600,1.212
40.4000,1.190
40.4400,1.231
40.4800,1.238
40.5200,1.174
40.5600,1.194
40.6000,1.209
40.6400,1.234
40.6800,1.171
40.7200,1.251
40.7600,1.211
40.8000,1.204
40.8400,1.162
40.8800,1.209
40.9200,1.148
40.9600,1.159
41.0000,1.182
41.0400,1.172
41.0800,1.153
41.1200,1.142
41.1600,1.208
41.2000,1.160
41.2400,1.234
41.2800,1.145
41.3200,1.171
41.3600,1.178
41.4000,1.133
41.4400,1.146
41.4800,1.185
41.5200,1.190
41.5600,1.191
41.6000,1.190
41.6400,1.258
41.6800,1.204
41.7200,1.221
41.7600,1.176
41.8000,1.393
41.8400,1.522
41.8800,1.576
41.9200,1.457
41.9600,1.417
42.0000,1.337
42.0400,1.268
42.0800,1.228
42.1200,1.155
42.1600,1.144
42.2000,1.150
42.2400,1.177
42.2800,1.163
42.3200,1.144
42.3600,1.146
42.4000,1.104
42.4400,1.077
42.4800,1.099
42.5200,1.136
42.5600,1.066
42.6000,1.113
42.6400,1.065
42.6800,1.056
42.7200,1.153
42.7600,1.066
42.8000,1.160
42.8400,1.116
42.8800,1.040
42.9200,1.086
42.9600,1.092
43.0000,1.094
43.0400,1.062
43.0800,1.075
43.1200,1.052
43.1600,1.089
43.2000,1.100
43.2400,1.081
43.2800,1.048
43.3200,1.054
43.3600,1.052
43.4000,1.087
43.4400,0.966
43.4800,1.044
43.5200,1.087
43.5600,1.061
43.6000,1.065
43.6400,1.038
43.6800,1.044
43.7200,1.057
43.7600,1.056
43.8000,1.134
43.8400,1.098
43.8800,1.083
43.9200,1.065
43.9600,1.080
44.0000,1.000
44.0400,1.022
44.0800,0.984
44.1200,1.054
44.1600,1.029
44.2000,1.038
44.2400,0.995
44.2800,0.976
44.3200,1.013
44.3600,1.033
44.4000,0.951
44.4400,1.022
44.4800,1.015
44.5200,1.026
44.5600,1.068
44.6000,1.002
44.6400,1.030
44.6800,1.030
44.7200,1.002
44.7600,0.948
44.8000,0.940
44.8400,1.007
44.8800,0.967
44.9200,0.994
44.9600,0.958
45.0000,0.996
45.0400,0.991
45.0800,0.945
45.1200,0.979
45.1600,1.005
45.2000,0.969
45.2400,1.002
45.2800,0.995
45.3200,1.005
45.3600,0.970
45.4000,1.009
45.4400,1.024
45.4800,1.071
45.5200,1.054
45.5600,1.112
45.6000,1.215
45.6400,1.373
45.6800,1.628
45.7200,1.695
45.7600,1.448
45.8000,1.508
45.8400,1.402
45.8800,1.259
45.9200,1.143
45.9600,1.058
46.0000,1.052
46.0400,0.996
46.0800,0.979
46.1200,0.957
46.1600,1.015
46.2000,0.948
46.2400,0.953
46.2800,0.929
46.3200,0.918
46.3600,0.902
46.4000,0.930
46.4400,0.946
46.4800,0.918
46.5200,0.947
46.5600,0.976
46.6000,0.942
46.6400,0.949
46.6800,0.944
46.7200,0.902
46.7600,0.931
46.8000,0.953
46.8400,0.916
46.8800,0.934
46.9200,0.939
46.9600,0.911
47.0000,0.948
47.0400,0.915
47.0800,0.912
47.1200,0.940
47.1600,0.943
47.2000,0.930
47.2400,0.927
47.2800,0.877
47.3200,0.946
47.3600,0.910
47.4000,0.869
47.4400,0.929
47.4800,0.886
47.5200,0.924
47.5600,0.905
47.6000,0.940
47.6400,0.937
47.6800,0.943
47.7200,0.882
47.7600,0.854
47.8000,0.911
47.8400,0.899
47.8800,0.888
47.9200,0.889
47.9600,0.885
48.0000,0.934
48.0400,0.867
48.0800,0.892
48.1200,0.853
48.1600,0.887
48.2000,0.884
48.2400,0.921
48.2800,0.927
48.3200,0.900
48.3600,0.886
48.4000,0.845
48.4400,0.896
48.4800,0.877
48.5200,0.886
48.5600,0.872
48.6000,0.933
48.6400,0.859
48.6800,0.889
48.7200,0.875
48.7600,0.899
48.8000,0.809
48.8400,0.835
48.8800,0.887
48.9200,0.857
48.9600,0.836
49.0000,0.821
49.0400,0.873
49.0800,0.888
49.1200,0.880
49.1600,0.916
49.2000,0.895
49.2400,0.959
49.2800,0.998
49.3200,1.006
49.3600,0.958
49.4000,0.988
49.4400,0.995
49.4800,0.984
49.5200,0.901
49.5600,0.864
49.6000,0.834
49.6400,0.938
49.6800,0.812
49.7200,0.820
49.7600,0.844
49.8000,0.840
49.8400,0.807
49.8800,0.849
49.9200,0.858
49.9600,0.857
50.0000,0.839
50.0400,0.819
50.0800,0.835
50.1200,0.828
50.1600,0.845
50.2000,0.834
50.2400,0.865
50.2800,0.850
50.3200,0.897
50.3600,0.831
50.4000,0.853
50.4400,0.905
50.4800,0.862
50.5200,0.851
50.5600,0.835
50.6000,0.910
50.6400,0.893
50.6800,0.931
50.7200,0.986
50.7600,1.015
50.8000,1.109
50.8400,1.114
50.8800,1.276
50.9200,1.527
50.9600,1.996
51.0000,2.830
51.0400,3.541
51.0800,3.194
51.1200,2.682
51.1600,2.679
51.2000,2.457
51.2400,1.820
51.2800,1.479
51.3200,1.224
51.3600,1.043
51.4000,1.012
51.4400,1.004
51.4800,0.882
51.5200,0.920
51.5600,0.937
51.6000,0.889
51.6400,0.879
51.6800,0.807
51.7200,0.867
51.7600,0.799
51.8000,0.820
51.8400,0.826
51.8800,0.800
51.9200,0.795
51.9600,0.832
52.0000,0.792
52.0400,0.797
52.0800,0.767
52.1200,0.776
52.1600,0.775
52.2000,0.796
52.2400,0.802
52.2800,0.813
52.3200,0.736
52.3600,0.763
52.4000,0.776
52.4400,0.753
52.4800,0.753
52.5200,0.705
52.5600,0.838
52.6000,0.825
52.6400,0.841
52.6800,0.832
52.7200,0.949
52.7600,0.921
52.8000,0.791
52.8400,0.851
52.8800,0.842
52.9200,0.831
52.9600,0.784
53.0000,0.743
53.0400,0.744
53.0800,0.742
53.1200,0.767
53.1600,0.750
53.2000,0.788
53.2400,0.767
53.2800,0.779
53.3200,0.776
53.3600,0.695
53.4000,0.717
53.4400,0.754
53.4800,0.786
53.5200,0.709
53.5600,0.777
53.6000,0.790
53.6400,0.726
53.6800,0.757
53.7200,0.829
53.7600,0.745
53.8000,0.716
53.8400,0.766
53.8800,0.756
53.9200,0.781
53.9600,0.680
54.0000,0.765
54.0400,0.749
54.0800,0.684
54.1200,0.723
54.1600,0.750
54.2000,0.789
54.2400,0.741
54.2800,0.741
54.3200,0.832
54.3600,0.887
54.4000,1.454
54.4400,1.977
54.4800,1.472
54.5200,1.049
54.5600,1.258
54.6000,1.344
54.6400,1.023
54.6800,0.813
54.7200,0.755
54.7600,0.756
54.8000,0.721
54.8400,0.702
54.8800,0.737
54.9200,0.696
54.9600,0.731
55.0000,0.702
55.0400,0.785
55.0800,0.735
55.1200,0.734
55.1600,0.767
55.2000,0.675
55.2400,0.729
55.2800,0.736
55.3200,0.707
55.3600,0.744
55.4000,0.705
55.4400,0.757
55.4800,0.716
55.5200,0.695
55.5600,0.716
55.6000,0.740
55.6400,0.769
55.6800,0.767
55.7200,0.739
55.7600,0.742
55.8000,0.759
55.8400,0.787
55.8800,0.782
55.9200,0.869
55.9600,1.004
56.0000,1.013
56.0400,0.948
56.0800,0.962
56.1200,0.943
56.1600,0.941
56.2000,0.884
56.2400,0.878
56.2800,0.823
56.3200,0.784
56.3600,0.777
56.4000,0.803
56.4400,0.827
56.4800,1.030
56.5200,1.388
56.5600,1.307
56.6000,0.963
56.6400,0.932
56.6800,1.055
56.7200,1.019
56.7600,0.788
56.8000,0.756
56.8400,0.754
56.8800,0.787
56.9200,0.768
56.9600,0.784
57.0000,0.738
57.0400,0.696
57.0800,0.730
57.1200,0.697
57.1600,0.710
57.2000,0.672
57.2400,0.710
57.2800,0.694
57.3200,0.693
57.3600,0.696
57.4000,0.732
57.4400,0.722
57.4800,0.692
57.5200,0.679
57.5600,0.744
57.6000,0.780
57.6400,0.701
57.6800,0.716
57.7200,0.701
57.7600,0.730
57.8000,0.728
57.8400,0.662
57.8800,0.677
57.9200,0.686
57.9600,0.669
58.0000,0.674
58.0400,0.682
58.0800,0.641
58.1200,0.741
58.1600,0.704
58.2000,0.681
58.2400,0.674
58.2800,0.649
58.3200,0.684
58.3600,0.634
58.4000,0.669
58.4400,0.674
58.4800,0.617
58.5200,0.655
58.5600,0.635
58.6000,0.672
58.6400,0.626
58.6800,0.644
58.7200,0.644
58.7600,0.650
58.8000,0.646
58.8400,0.688
58.8800,0.666
58.9200,0.678
58.9600,0.669
59.0000,0.727
59.0400,0.708
59.0800,0.793
59.1200,0.855
59.1600,0.887
59.2000,0.826
59.2400,0.814
59.2800,0.821
59.3200,0.835
59.3600,0.760
59.4000,0.765
59.4400,0.700
59.4800,0.688
59.5200,0.652
59.5600,0.609
59.6000,0.633
59.6400,0.635
59.6800,0.587
59.7200,0.633
59.7600,0.649
59.8000,0.628
59.8400,0.650
59.8800,0.637
59.9200,0.629
59.9600,0.577
60.0000,0.670
60.0400,0.671
60.0800,0.638
60.1200,0.630
60.1600,0.673
60.2000,0.674
60.2400,0.636
60.2800,0.724
60.3200,0.744
60.3600,0.697
60.4000,0.772
60.4400,0.809
60.4800,0.851
60.5200,0.935
60.5600,1.024
60.6000,1.335
60.6400,1.702
60.6800,2.131
60.7200,2.015
60.7600,1.697
60.8000,1.640
60.8400,1.719
60.8800,1.515
60.9200,1.198
60.9600,0.969
61.0000,0.920
61.0400,0.791
61.0800,0.780
61.1200,0.700
61.1600,0.713
61.2000,0.688
61.2400,0.680
61.2800,0.653
61.3200,0.652
61.3600,0.670
61.4000,0.654
61.4400,0.656
61.4800,0.671
61.5200,0.620
61.5600,0.655
61.6000,0.605
61.6400,0.651
61.6800,0.700
61.7200,0.698
61.7600,0.633
61.8000,0.615
61.8400,0.594
61.8800,0.646
61.9200,0.652
61.9600,0.677
62.0000,0.670
62.0400,0.662
62.0800,0.683
62.1200,0.797
62.1600,0.828
62.2000,0.856
62.2400,0.890
62.2800,0.807
62.3200,0.799
62.3600,0.764
62.4000,0.806
62.4400,0.730
62.4800,0.637
62.5200,0.665
62.5600,0.670
62.6000,0.663
62.6400,0.635
62.6800,0.664
62.7200,0.609
62.7600,0.604
62.8000,0.619
62.8400,0.661
62.8800,0.602
62.9200,0.635
62.9600,0.614
63.0000,0.626
63.0400,0.603
63.0800,0.624
63.1200,0.681
63.1600,1.063
63.2000,1.123
63.2400,0.938
63.2800,0.729
63.3200,0.782
63.3600,0.877
63.4000,0.823
63.4400,0.746
63.4800,0.670
63.5200,0.648
63.5600,0.730
63.6000,0.705
63.6400,0.849
63.6800,0.883
63.7200,0.827
63.7600,0.812
63.8000,0.792
63.8400,0.801
63.8800,0.731
63.9200,0.741
63.9600,0.668
64.0000,0.693
64.0400,0.615
64.0800,0.607
64.1200,0.598
64.1600,0.585
64.2000,0.604
64.2400,0.552
64.2800,0.619
64.3200,0.626
64.3600,0.598
64.4000,0.593
64.4400,0.565
64.4800,0.581
64.5200,0.609
64.5600,0.600
64.6000,0.564
64.6400,0.626
64.6800,0.637
64.7200,0.592
64.7600,0.619
64.8000,0.627
64.8400,0.606
64.8800,0.614
64.9200,0.649
64.9600,0.668
65.0000,0.638
65.0400,0.622
65.0800,0.625
65.1200,0.731
65.1600,0.695
65.2000,0.714
65.2400,0.686
65.2800,0.690
65.3200,0.693
65.3600,0.723
65.4000,0.684
65.4400,0.681
65.4800,0.672
65.5200,0.712
65.5600,0.682
65.6000,0.678
65.6400,0.648
65.6800,0.724
65.7200,0.647
65.7600,0.683
65.8000,0.717
65.8400,0.694
65.8800,0.687
65.9200,0.674
65.9600,0.692
66.0000,0.725
66.0400,0.701
66.0800,0.724
66.1200,0.683
66.1600,0.739
66.2000,0.766
66.2400,0.755
66.2800,0.802
66.3200,0.775
66.3600,0.779
66.4000,0.784
66.4400,0.786
66.4800,0.785
66.5200,0.848
66.5600,0.891
66.6000,0.873
66.6400,0.898
66.6800,0.872
66.7200,0.896
66.7600,0.939
66.8000,0.932
66.8400,0.996
66.8800,0.970
66.9200,1.150
66.9600,1.497
67.0000,1.717
67.0400,1.392
67.0800,1.137
67.1200,1.165
67.1600,1.321
67.2000,1.350
67.2400,1.155
67.2800,1.174
67.3200,1.133
67.3600,1.085
67.4000,1.088
67.4400,1.136
67.4800,1.175
67.5200,1.154
67.5600,1.163
67.6000,1.216
67.6400,1.248
67.6800,1.265
67.7200,1.311
67.7600,1.299
67.8000,1.361
67.8400,1.378
67.8800,1.417
67.9200,1.494
67.9600,1.482
68.0000,1.567
68.0400,1.656
68.0800,1.750
68.1200,1.744
68.1600,1.687
68.2000,1.841
68.2400,1.839
68.2800,1.845
68.3200,1.976
68.3600,1.977
68.4000,2.043
68.4400,2.160
68.4800,2.216
68.5200,2.302
68.5600,2.423
68.6000,2.594
68.6400,2.798
68.6800,3.295
68.7200,3.943
68.7600,4.970
68.8000,6.013
68.8400,6.790
68.8800,6.847
68.9200,7.323
68.9600,8.855
69.0000,13.331
69.0400,25.119
69.0800,75.613
69.1200,322.358
69.1600,469.915
69.2000,228.244
69.2400,58.760
69.2800,60.880
69.3200,179.698
69.3600,236.126
69.4000,111.061
69.4400,28.257
69.4800,12.773
69.5200,8.741
69.5600,6.735
69.6000,5.542
69.6400,4.731
69.6800,4.018
69.7200,3.770
69.7600,3.436
69.8000,3.058
69.8400,2.922
69.8800,2.751
69.9200,2.545
69.9600,2.411
70.0000,2.339
70.0400,2.286
70.0800,2.140
70.1200,2.058
70.1600,2.015
70.2000,1.887
70.2400,1.898
70.2800,1.790
70.3200,1.739
70.3600,1.733
70.4000,1.611
70.4400,1.575
70.4800,1.516
70.5200,1.491
70.5600,1.398
70.6000,1.385
70.6400,1.315
70.6800,1.302
70.7200,1.262
70.7600,1.278
70.8000,1.209
70.8400,1.164
70.8800,1.166
70.9200,1.150
70.9600,1.116
71.0000,1.099
71.0400,1.080
71.0800,1.031
71.1200,1.018
71.1600,1.014
71.2000,0.996
71.2400,0.946
71.2800,0.916
71.3200,0.921
71.3600,0.899
71.4000,0.888
71.4400,0.845
71.4800,0.868
71.5200,0.863
71.5600,0.813
71.6000,0.798
71.6400,0.779
71.6800,0.755
71.7200,0.760
71.7600,0.723
71.8000,0.732
71.8400,0.692
71.8800,0.655
71.9200,0.657
71.9600,0.671
72.0000,0.681
72.0400,0.678
72.0800,0.629
72.1200,0.607
72.1600,0.627
72.2000,0.617
72.2400,0.597
72.2800,0.612
72.3200,0.588
72.3600,0.626
72.4000,0.590
72.4400,0.590
72.4800,0.570
72.5200,0.559
72.5600,0.589
72.6000,0.554
72.6400,0.556
72.6800,0.567
72.7200,0.542
72.7600,0.507
72.8000,0.541
72.8400,0.476
72.8800,0.505
72.9200,0.519
72.9600,0.512
73.0000,0.531
73.0400,0.459
73.0800,0.533
73.1200,0.488
73.1600,0.480
73.2000,0.465
73.2400,0.470
73.2800,0.480
73.3200,0.450
73.3600,0.460
73.4000,0.463
73.4400,0.457
73.4800,0.483
73.5200,0.473
73.5600,0.518
73.6000,0.494
73.6400,0.485
73.6800,0.571
73.7200,0.539
73.7600,0.520
73.8000,0.460
73.8400,0.503
73.8800,0.478
73.9200,0.497
73.9600,0.501
74.0000,0.460
74.0400,0.443
74.0800,0.405
74.1200,0.405
74.1600,0.421
74.2000,0.426
74.2400,0.443
74.2800,0.437
74.3200,0.426
74.3600,0.409
74.4000,0.403
74.4400,0.409
74.4800,0.417
74.5200,0.405
74.5600,0.379
74.6000,0.424
74.6400,0.387
74.6800,0.416
74.7200,0.414
74.7600,0.416
74.8000,0.409
74.8400,0.415
74.8800,0.439
74.9200,0.393
74.9600,0.411
75.0000,0.488
75.0400,0.536
75.0800,0.524
75.1200,0.490
75.1600,0.419
75.2000,0.461
75.2400,0.427
75.2800,0.455
75.3200,0.468
75.3600,0.449
75.4000,0.448
75.4400,0.401
75.4800,0.402
75.5200,0.379
75.5600,0.402
75.6000,0.375
75.6400,0.384
75.6800,0.375
75.7200,0.400
75.7600,0.381
75.8000,0.327
75.8400,0.391
75.8800,0.360
75.9200,0.352
75.9600,0.393
76.0000,0.389
76.0400,0.342
76.0800,0.370
76.1200,0.378
76.1600,0.373
76.2000,0.352
76.2400,0.361
76.2800,0.371
76.3200,0.381
76.3600,0.395
76.4000,0.458
76.4400,0.461
76.4800,0.475
76.5200,0.398
76.5600,0.430
76.6000,0.433
76.6400,0.457
76.6800,0.417
76.7200,0.394
76.7600,0.412
76.8000,0.365
76.8400,0.354
76.8800,0.367
76.9200,0.365
76.9600,0.359
77.0000,0.363
77.0400,0.389
77.0800,0.334
77.1200,0.372
77.1600,0.349
77.2000,0.356
77.2400,0.364
77.2800,0.338
77.3200,0.349
77.3600,0.367
77.4000,0.349
77.4400,0.321
77.4800,0.339
77.5200,0.326
77.5600,0.343
77.6000,0.334
77.6400,0.337
77.6800,0.333
77.7200,0.372
77.7600,0.391
77.8000,0.415
77.8400,0.433
77.8800,0.378
77.9200,0.361
77.9600,0.357
78.0000,0.330
78.0400,0.362
78.0800,0.347
78.1200,0.327
78.1600,0.328
78.2000,0.314
78.2400,0.331
78.2800,0.295
78.3200,0.305
78.3600,0.342
78.4000,0.279
78.4400,0.320
78.4800,0.305
78.5200,0.316
78.5600,0.348
78.6000,0.325
78.6400,0.294
78.6800,0.308
78.7200,0.295
78.7600,0.297
78.8000,0.319
78.8400,0.308
78.8800,0.347
78.9200,0.332
78.9600,0.313
79.0000,0.349
79.0400,0.300
79.0800,0.376
79.1200,0.379
79.1600,0.373
79.2000,0.387
79.2400,0.363
79.2800,0.346
79.3200,0.333
79.3600,0.386
79.4000,0.353
79.4400,0.307
79.4800,0.339
79.5200,0.317
79.5600,0.315
79.6000,0.292
79.6400,0.324
79.6800,0.320
79.7200,0.301
79.7600,0.288
79.8000,0.335
79.8400,0.307
79.8800,0.293
79.9200,0.281
79.9600,0.275
80.0000,0.278
