theta,intensity
5.0000,5.838
5.0400,5.970
5.0800,5.766
5.1200,5.670
5.1600,5.547
5.2000,5.522
5.2400,5.325
5.2800,5.405
5.3200,5.317
5.3600,5.156
5.4000,5.126
5.4400,5.009
5.4800,4.888
5.5200,5.016
5.5600,4.832
5.6000,4.743
5.6400,4.681
5.6800,4.432
5.7200,4.539
5.7600,4.479
5.8000,4.380
5.8400,4.456
5.8800,4.320
5.9200,4.332
5.9600,4.299
6.0000,4.308
6.0400,4.329
6.0800,4.312
6.1200,4.233
6.1600,4.288
6.2000,4.209
6.2400,4.156
6.2800,4.174
6.3200,4.128
6.3600,4.184
6.4000,4.124
6.4400,4.214
6.4800,4.256
6.5200,4.291
6.5600,4.229
6.6000,4.153
6.6400,4.211
6.6800,4.182
6.7200,4.280
6.7600,4.204
6.8000,4.169
6.8400,4.022
6.8800,4.155
6.9200,4.115
6.9600,3.948
7.0000,4.003
7.0400,4.116
7.0800,4.125
7.1200,4.029
7.1600,4.120
7.2000,4.147
7.2400,4.028
7.2800,4.075
7.3200,4.016
7.3600,4.028
7.4000,3.963
7.4400,3.967
7.4800,4.068
7.5200,4.054
7.5600,3.992
7.6000,3.972
7.6400,3.965
7.6800,3.921
7.7200,4.038
7.7600,3.936
7.8000,4.100
7.8400,3.937
7.8800,3.922
7.9200,3.969
7.9600,4.025
8.0000,4.027
8.0400,4.006
8.0800,3.945
8.1200,3.881
8.1600,3.837
8.2000,3.960
8.2400,3.829
8.2800,3.837
8.3200,3.880
8.3600,3.945
8.4000,3.939
8.4400,3.846
8.4800,3.823
8.5200,3.894
8.5600,3.942
8.6000,3.871
8.6400,3.918
8.6800,3.954
8.7200,3.880
8.7600,3.907
8.8000,3.799
8.8400,3.825
8.8800,3.745
8.9200,3.694
8.9600,3.872
9.0000,3.828
9.0400,3.848
9.0800,3.825
9.1200,3.876
9.1600,3.815
9.2000,3.765
9.2400,3.748
9.2800,3.776
9.3200,3.707
9.3600,3.748
9.4000,3.735
9.4400,3.771
9.4800,3.820
9.5200,3.825
9.5600,3.749
9.6000,3.730
9.6400,3.869
9.6800,3.754
9.7200,3.689
9.7600,3.760
9.8000,3.693
9.8400,3.730
9.8800,3.841
9.9200,3.811
9.9600,3.720
10.0000,3.817
10.0400,3.733
10.0800,3.706
10.1200,3.713
10.1600,3.601
10.2000,3.724
10.2400,3.648
10.2800,3.708
10.3200,3.726
10.3600,3.647
10.4000,3.714
10.4400,3.616
10.4800,3.725
10.5200,3.679
10.5600,3.636
10.6000,3.653
10.6400,3.583
10.6800,3.719
10.7200,3.635
10.7600,3.592
10.8000,3.544
10.8400,3.627
10.8800,3.617
10.9200,3.614
10.9600,3.640
11.0000,3.527
11.0400,3.648
11.0800,3.540
11.1200,3.620
11.1600,3.614
11.2000,3.589
11.2400,3.683
11.2800,3.615
11.3200,3.533
11.3600,3.594
11.4000,3.642
11.4400,3.671
11.4800,3.530
11.5200,3.536
11.5600,3.518
11.6000,3.618
11.6400,3.568
11.6800,3.504
11.7200,3.446
11.7600,3.433
11.8000,3.543
11.8400,3.443
11.8800,3.547
11.9200,3.470
11.9600,3.596
12.0000,3.524
12.0400,3.573
12.0800,3.455
12.1200,3.527
12.1600,3.424
12.2000,3.480
12.2400,3.423
12.2800,3.578
12.3200,3.489
12.3600,3.482
12.4000,3.458
12.4400,3.429
12.4800,3.413
12.5200,3.465
12.5600,3.425
12.6000,3.529
12.6400,3.382
12.6800,3.535
12.7200,3.499
12.7600,3.466
12.8000,3.391
12.8400,3.383
12.8800,3.519
12.9200,3.425
12.9600,3.425
13.0000,3.308
13.0400,3.421
13.0800,3.382
13.1200,3.403
13.1600,3.483
13.2000,3.286
13.2400,3.358
13.2800,3.352
13.3200,3.410
13.3600,3.283
13.4000,3.318
13.4400,3.353
13.4800,3.300
13.5200,3.390
13.5600,3.330
13.6000,3.280
13.6400,3.263
13.6800,3.355
13.7200,3.314
13.7600,3.336
13.8000,3.314
13.8400,3.218
13.8800,3.241
13.9200,3.266
13.9600,3.299
14.0000,3.308
14.0400,3.257
14.0800,3.250
14.1200,3.244
14.1600,3.277
14.2000,3.317
14.2400,3.311
14.2800,3.272
14.3200,3.231
14.3600,3.210
14.4000,3.220
14.4400,3.277
14.4800,3.246
14.5200,3.224
14.5600,3.253
14.6000,3.246
14.6400,3.363
14.6800,3.229
14.7200,3.272
14.7600,3.216
14.8000,3.268
14.8400,3.313
14.8800,3.138
14.9200,3.209
14.9600,3.184
15.0000,3.204
15.0400,3.135
15.0800,3.276
15.1200,3.148
15.1600,3.228
15.2000,3.164
15.2400,3.209
15.2800,3.090
15.3200,3.201
15.3600,3.251
15.4000,3.117
15.4400,3.114
15.4800,3.174
15.5200,3.168
15.5600,3.144
15.6000,3.144
15.6400,3.158
15.6800,3.103
15.7200,3.104
15.7600,3.195
15.8000,3.233
15.8400,3.181
15.8800,3.040
15.9200,3.121
15.9600,3.142
16.0000,3.094
16.0400,3.077
16.0800,3.090
16.1200,3.122
16.1600,3.120
16.2000,3.142
16.2400,3.147
16.2800,3.148
16.3200,3.189
16.3600,3.082
16.4000,2.976
16.4400,3.030
16.4800,3.003
16.5200,3.062
16.5600,3.087
16.6000,3.015
16.6400,3.004
16.6800,2.981
16.7200,3.071
16.7600,3.043
16.8000,3.076
16.8400,3.075
16.8800,2.947
16.9200,2.950
16.9600,3.024
17.0000,3.054
17.0400,3.036
17.0800,3.101
17.1200,3.071
17.1600,3.012
17.2000,2.982
17.2400,2.999
17.2800,3.014
17.3200,2.971
17.3600,2.914
17.4000,2.970
17.4400,3.060
17.4800,3.053
17.5200,2.989
17.5600,2.989
17.6000,3.018
17.6400,2.935
17.6800,2.960
17.7200,2.932
17.7600,2.954
17.8000,2.819
17.8400,2.984
17.8800,2.993
17.9200,2.971
17.9600,2.937
18.0000,2.847
18.0400,3.010
18.0800,2.911
18.1200,2.842
18.1600,2.933
18.2000,2.844
18.2400,2.877
18.2800,2.872
18.3200,2.896
18.3600,2.847
18.4000,2.885
18.4400,2.832
18.4800,2.880
18.5200,2.810
18.5600,2.849
18.6000,2.921
18.6400,2.978
18.6800,2.860
18.7200,2.800
18.7600,2.764
18.8000,2.809
18.8400,2.847
18.8800,2.825
18.9200,2.729
18.9600,2.865
19.0000,2.794
19.0400,2.819
19.0800,2.825
19.1200,2.774
19.1600,2.748
19.2000,2.834
19.2400,2.754
19.2800,2.827
19.3200,2.736
19.3600,2.773
19.4000,2.863
19.4400,2.762
19.4800,2.779
19.5200,2.839
19.5600,2.790
19.6000,2.869
19.6400,2.757
19.6800,2.759
19.7200,2.738
19.7600,2.755
19.8000,2.718
19.8400,2.661
19.8800,2.703
19.9200,2.667
19.9600,2.591
20.0000,2.746
20.0400,2.801
20.0800,2.762
20.1200,2.767
20.1600,2.735
20.2000,2.748
20.2400,2.679
20.2800,2.760
20.3200,2.606
20.3600,2.630
20.4000,2.735
20.4400,2.612
20.4800,2.786
20.5200,2.778
20.5600,2.679
20.6000,2.666
20.6400,2.683
20.6800,2.691
20.7200,2.646
20.7600,2.562
20.8000,2.613
20.8400,2.587
20.8800,2.731
20.9200,2.595
20.9600,2.694
21.0000,2.603
21.0400,2.680
21.0800,2.650
21.1200,2.775
21.1600,2.759
21.2000,2.658
21.2400,2.677
21.2800,2.785
21.3200,2.734
21.3600,2.851
21.4000,3.012
21.4400,3.396
21.4800,3.526
21.5200,3.442
21.5600,3.291
21.6000,2.942
21.6400,2.740
21.6800,2.629
21.7200,2.645
21.7600,2.680
21.8000,2.570
21.8400,2.661
21.8800,2.550
21.9200,2.685
21.9600,2.632
22.0000,2.572
22.0400,2.524
22.0800,2.523
22.1200,2.535
22.1600,2.512
22.2000,2.492
22.2400,2.562
22.2800,2.539
22.3200,2.468
22.3600,2.532
22.4000,2.503
22.4400,2.484
22.4800,2.599
22.5200,2.516
22.5600,2.488
22.6000,2.466
22.6400,2.574
22.6800,2.513
22.7200,2.450
22.7600,2.558
22.8000,2.500
22.8400,2.499
22.8800,2.475
22.9200,2.390
22.9600,2.486
23.0000,2.497
23.0400,2.432
23.0800,2.425
23.1200,2.501
23.1600,2.494
23.2000,2.464
23.2400,2.465
23.2800,2.566
23.3200,2.401
23.3600,2.457
23.4000,2.349
23.4400,2.478
23.4800,2.399
23.5200,2.386
23.5600,2.445
23.6000,2.428
23.6400,2.462
23.6800,2.432
23.7200,2.414
23.7600,2.355
23.8000,2.353
23.8400,2.426
23.8800,2.417
23.9200,2.388
23.9600,2.413
24.0000,2.417
24.0400,2.372
24.0800,2.427
24.1200,2.367
24.1600,2.432
24.2000,2.424
24.2400,2.343
24.2800,2.443
24.3200,2.343
24.3600,2.248
24.4000,2.418
24.4400,2.305
24.4800,2.279
24.5200,2.321
24.5600,2.367
24.6000,2.310
24.6400,2.289
24.6800,2.318
24.7200,2.329
24.7600,2.442
24.8000,2.341
24.8400,2.285
24.8800,2.325
24.9200,2.216
24.9600,2.250
25.0000,2.268
25.0400,2.284
25.0800,2.259
25.1200,2.319
25.1600,2.299
25.2000,2.311
25.2400,2.273
25.2800,2.284
25.3200,2.309
25.3600,2.255
25.4000,2.245
25.4400,2.202
25.4800,2.245
25.5200,2.322
25.5600,2.237
25.6000,2.178
25.6400,2.243
25.6800,2.206
25.7200,2.233
25.7600,2.248
25.8000,2.166
25.8400,2.246
25.8800,2.288
25.9200,2.191
25.9600,2.156
26.0000,2.253
26.0400,2.195
26.0800,2.224
26.1200,2.220
26.1600,2.107
26.2000,2.202
26.2400,2.219
26.2800,2.164
26.3200,2.160
26.3600,2.176
26.4000,2.155
26.4400,2.226
26.4800,2.223
26.5200,2.200
26.5600,2.209
26.6000,2.197
26.6400,2.179
26.6800,2.222
26.7200,2.183
26.7600,2.155
26.8000,2.092
26.8400,2.166
26.8800,2.156
26.9200,2.116
26.9600,2.179
27.0000,2.106
27.0400,2.147
27.0800,2.153
27.1200,2.135
27.1600,2.084
27.2000,2.132
27.2400,2.151
27.2800,2.047
27.3200,2.061
27.3600,2.164
27.4000,2.081
27.4400,2.073
27.4800,2.083
27.5200,2.089
27.5600,2.074
27.6000,2.104
27.6400,2.107
27.6800,2.106
27.7200,2.044
27.7600,2.068
27.8000,2.091
27.8400,2.082
27.8800,2.083
27.9200,2.156
27.9600,2.111
28.0000,2.137
28.0400,2.189
28.0800,2.002
28.1200,2.136
28.1600,2.088
28.2000,2.068
28.2400,2.086
28.2800,2.115
28.3200,2.044
28.3600,2.097
28.4000,2.077
28.4400,2.129
28.4800,2.067
28.5200,2.044
28.5600,2.054
28.6000,2.060
28.6400,2.135
28.6800,2.084
28.7200,2.086
28.7600,2.062
28.8000,2.059
28.8400,2.055
28.8800,2.114
28.9200,2.028
28.9600,2.041
29.0000,2.049
29.0400,2.034
29.0800,2.092
29.1200,2.034
29.1600,2.056
29.2000,2.014
29.2400,1.955
29.2800,2.086
29.3200,2.062
29.3600,2.027
29.4000,2.058
29.4400,2.042
29.4800,2.020
29.5200,2.017
29.5600,2.069
29.6000,2.021
29.6400,2.087
29.6800,1.950
29.7200,2.070
29.7600,2.050
29.8000,2.106
29.8400,2.062
29.8800,2.099
29.9200,2.043
29.9600,2.036
30.0000,2.141
30.0400,2.153
30.0800,2.204
30.1200,2.302
30.1600,2.266
30.2000,2.296
30.2400,2.364
30.2800,2.474
30.3200,2.591
30.3600,2.787
30.4000,3.032
30.4400,3.459
30.4800,4.498
30.5200,6.494
30.5600,8.684
30.6000,8.576
30.6400,7.371
30.6800,5.880
30.7200,4.299
30.7600,3.301
30.8000,2.986
30.8400,2.780
30.8800,2.579
30.9200,2.482
30.9600,2.372
31.0000,2.349
31.0400,2.283
31.0800,2.195
31.1200,2.289
31.1600,2.216
31.2000,2.262
31.2400,2.216
31.2800,2.134
31.3200,2.260
31.3600,2.257
31.4000,2.276
31.4400,2.209
31.4800,2.342
31.5200,2.350
31.5600,2.365
31.6000,2.308
31.6400,2.337
31.6800,2.533
31.7200,2.498
31.7600,2.427
31.8000,2.411
31.8400,2.388
31.8800,2.369
31.9200,2.354
31.9600,2.371
32.0000,2.367
32.0400,2.312
32.0800,2.245
32.1200,2.109
32.1600,2.226
32.2000,2.183
32.2400,2.195
32.2800,2.132
32.3200,2.053
32.3600,2.175
32.4000,2.146
32.4400,2.141
32.4800,2.102
32.5200,2.135
32.5600,2.194
32.6000,2.135
32.6400,2.241
32.6800,2.273
32.7200,2.348
32.7600,2.425
32.8000,2.771
32.8400,4.620
32.8800,12.120
32.9200,16.285
32.9600,12.167
33.0000,10.852
33.0400,8.211
33.0800,4.276
33.1200,2.551
33.1600,2.226
33.2000,2.199
33.2400,2.103
33.2800,2.030
33.3200,2.054
33.3600,2.004
33.4000,2.012
33.4400,1.993
33.4800,2.017
33.5200,1.987
33.5600,1.879
33.6000,2.021
33.6400,1.940
33.6800,1.900
33.7200,1.986
33.7600,1.946
33.8000,1.951
33.8400,2.012
33.8800,2.040
33.9200,1.921
33.9600,1.978
34.0000,2.016
34.0400,1.948
34.0800,2.001
34.1200,2.016
34.1600,2.036
34.2000,2.013
34.2400,2.176
34.2800,2.115
34.3200,2.135
34.3600,2.171
34.4000,2.142
34.4400,2.138
34.4800,2.098
34.5200,2.032
34.5600,1.953
34.6000,1.991
34.6400,2.077
34.6800,2.067
34.7200,2.020
34.7600,1.947
34.8000,1.942
34.8400,1.842
34.8800,1.960
34.9200,1.954
34.9600,1.964
35.0000,1.954
35.0400,1.881
35.0800,1.918
35.1200,1.920
35.1600,2.013
35.2000,2.005
35.2400,2.061
35.2800,2.167
35.3200,2.192
35.3600,2.511
35.4000,3.044
35.4400,3.576
35.4800,3.473
35.5200,3.216
35.5600,2.785
35.6000,2.559
35.6400,2.241
35.6800,2.262
35.7200,2.106
35.7600,2.113
35.8000,2.104
35.8400,2.037
35.8800,2.104
35.9200,2.090
35.9600,2.070
36.0000,2.143
36.0400,2.155
36.0800,2.137
36.1200,2.221
36.1600,2.245
36.2000,2.492
36.2400,3.314
36.2800,4.442
36.3200,3.834
36.3600,3.550
36.4000,3.092
36.4400,2.410
36.4800,2.127
36.5200,2.010
36.5600,1.893
36.6000,1.903
36.6400,1.950
36.6800,1.777
36.7200,1.772
36.7600,1.773
36.8000,1.738
36.8400,1.675
36.8800,1.699
36.9200,1.672
36.9600,1.623
37.0000,1.652
37.0400,1.644
37.0800,1.616
37.1200,1.504
37.1600,1.581
37.2000,1.527
37.2400,1.605
37.2800,1.414
37.3200,1.581
37.3600,1.478
37.4000,1.536
37.4400,1.565
37.4800,1.577
37.5200,1.621
37.5600,1.649
37.6000,1.612
37.6400,1.698
37.6800,1.765
37.7200,1.706
37.7600,1.682
37.8000,1.573
37.8400,1.551
37.8800,1.515
37.9200,1.489
37.9600,1.406
38.0000,1.441
38.0400,1.444
38.0800,1.438
38.1200,1.454
38.1600,1.506
38.2000,1.466
38.2400,1.383
38.2800,1.412
38.3200,1.431
38.3600,1.355
38.4000,1.346
38.4400,1.378
38.4800,1.382
38.5200,1.406
38.5600,1.396
38.6000,1.352
38.6400,1.353
38.6800,1.384
38.7200,1.385
38.7600,1.389
38.8000,1.364
38.8400,1.390
38.8800,1.436
38.9200,1.419
38.9600,1.467
39.0000,1.603
39.0400,2.051
39.0800,3.406
39.1200,3.896
39.1600,2.971
39.2000,2.824
39.2400,2.313
39.2800,1.694
39.3200,1.369
39.3600,1.304
39.4000,1.335
39.4400,1.340
39.4800,1.347
39.5200,1.361
39.5600,1.290
39.6000,1.256
39.6400,1.241
39.6800,1.277
39.7200,1.288
39.7600,1.292
39.8000,1.302
39.8400,1.354
39.8800,1.334
39.9200,1.334
39.9600,1.263
40.0000,1.234
40.0400,1.264
40.0800,1.266
40.1200,1.233
40.1600,1.275
40.2000,1.265
40.2400,1.262
40.2800,1.227
40.3200,1.237
40.3600,1.244
40.4000,1.273
40.4400,1.213
40.4800,1.274
40.5200,1.209
40.5600,1.246
40.6000,1.162
40.6400,1.184
40.6800,1.206
40.7200,1.263
40.7600,1.240
40.8000,1.171
40.8400,1.229
40.8800,1.187
40.9200,1.143
40.9600,1.191
41.0000,1.181
41.0400,1.182
41.0800,1.190
41.1200,1.170
41.1600,1.170
41.2000,1.199
41.2400,1.151
41.2800,1.147
41.3200,1.208
41.3600,1.175
41.4000,1.146
41.4400,1.152
41.4800,1.192
41.5200,1.210
41.5600,1.140
41.6000,1.165
41.6400,1.169
41.6800,1.125
41.7200,1.211
41.7600,1.265
41.8000,1.284
41.8400,1.338
41.8800,1.311
41.9200,1.322
41.9600,1.234
42.0000,1.230
42.0400,1.194
42.0800,1.185
42.1200,1.161
42.1600,1.222
42.2000,1.133
42.2400,1.104
42.2800,1.170
42.3200,1.142
42.3600,1.095
42.4000,1.174
42.4400,1.132
42.4800,1.097
42.5200,1.087
42.5600,1.099
42.6000,1.079
42.6400,1.124
42.6800,1.124
42.7200,1.036
42.7600,1.087
42.8000,1.095
42.8400,1.153
42.8800,1.043
42.9200,1.042
42.9600,1.141
43.0000,1.118
43.0400,1.079
43.0800,1.062
43.1200,1.122
43.1600,1.149
43.2000,1.205
43.2400,1.139
43.2800,1.150
43.3200,1.115
43.3600,1.134
43.4000,1.104
43.4400,1.052
43.4800,1.092
43.5200,1.078
43.5600,1.009
43.6000,1.135
43.6400,1.027
43.6800,1.075
43.7200,1.088
43.7600,1.071
43.8000,1.075
43.8400,1.145
43.8800,1.122
43.9200,1.106
43.9600,1.084
44.0000,1.050
44.0400,1.040
44.0800,1.084
44.1200,1.047
44.1600,1.060
44.2000,1.051
44.2400,1.028
44.2800,1.062
44.3200,1.055
44.3600,1.075
44.4000,0.976
44.4400,0.984
44.4800,0.993
44.5200,0.980
44.5600,0.987
44.6000,1.026
44.6400,1.006
44.6800,1.002
44.7200,0.996
44.7600,0.945
44.8000,1.004
44.8400,0.969
44.8800,1.022
44.9200,0.999
44.9600,1.030
45.0000,0.995
45.0400,1.044
45.0800,1.010
45.1200,1.012
45.1600,1.018
45.2000,0.986
45.2400,1.003
45.2800,1.024
45.3200,1.012
45.3600,1.013
45.4000,0.998
45.4400,0.997
45.4800,1.018
45.5200,1.064
45.5600,1.072
45.6000,1.184
45.6400,1.259
45.6800,1.328
45.7200,1.294
45.7600,1.193
45.8000,1.211
45.8400,1.131
45.8800,1.077
45.9200,1.075
45.9600,1.042
46.0000,1.022
46.0400,1.038
46.0800,0.982
46.1200,1.015
46.1600,0.972
46.2000,0.985
46.2400,0.934
46.2800,1.024
46.3200,0.965
46.3600,1.006
46.4000,0.962
46.4400,0.950
46.4800,0.992
46.5200,0.943
46.5600,0.971
46.6000,0.979
46.6400,0.956
46.6800,0.931
46.7200,0.962
46.7600,0.935
46.8000,0.979
46.8400,1.006
46.8800,0.970
46.9200,1.012
46.9600,0.944
47.0000,0.954
47.0400,0.987
47.0800,0.945
47.1200,0.958
47.1600,0.920
47.2000,0.962
47.2400,0.972
47.2800,0.931
47.3200,0.962
47.3600,1.030
47.4000,0.958
47.4400,0.918
47.4800,0.939
47.5200,0.939
47.5600,0.943
47.6000,0.931
47.6400,1.002
47.6800,0.955
47.7200,0.950
47.7600,0.946
47.8000,0.901
47.8400,0.921
47.8800,0.920
47.9200,0.934
47.9600,0.927
48.0000,0.941
48.0400,0.897
48.0800,0.909
48.1200,0.855
48.1600,0.949
48.2000,0.947
48.2400,0.890
48.2800,0.923
48.3200,0.895
48.3600,0.937
48.4000,0.905
48.4400,0.934
48.4800,0.910
48.5200,0.886
48.5600,0.830
48.6000,0.890
48.6400,0.850
48.6800,0.893
48.7200,0.832
48.7600,0.884
48.8000,0.864
48.8400,0.914
48.8800,0.871
48.9200,0.847
48.9600,0.857
49.0000,0.922
49.0400,0.851
49.0800,0.838
49.1200,0.868
49.1600,0.863
49.2000,0.918
49.2400,0.988
49.2800,0.966
49.3200,0.976
49.3600,0.939
49.4000,0.940
49.4400,0.897
49.4800,0.908
49.5200,0.883
49.5600,0.841
49.6000,0.872
49.6400,0.846
49.6800,0.831
49.7200,0.880
49.7600,0.834
49.8000,0.815
49.8400,0.870
49.8800,0.854
49.9200,0.858
49.9600,0.794
50.0000,0.826
50.0400,0.844
50.0800,0.832
50.1200,0.844
50.1600,0.849
50.2000,0.814
50.2400,0.880
50.2800,0.792
50.3200,0.847
50.3600,0.905
50.4000,0.871
50.4400,0.825
50.4800,0.895
50.5200,0.868
50.5600,0.900
50.6000,0.915
50.6400,0.918
50.6800,0.948
50.7200,0.951
50.7600,0.997
50.8000,1.000
50.8400,1.128
50.8800,1.266
50.9200,1.335
50.9600,1.764
51.0000,2.196
51.0400,2.161
51.0800,1.840
51.1200,1.825
51.1600,1.705
51.2000,1.487
51.2400,1.215
51.2800,1.076
51.3200,1.032
51.3600,0.976
51.4000,0.977
51.4400,0.848
51.4800,0.910
51.5200,0.852
51.5600,0.853
51.6000,0.835
51.6400,0.832
51.6800,0.825
51.7200,0.786
51.7600,0.785
51.8000,0.842
51.8400,0.814
51.8800,0.859
51.9200,0.820
51.9600,0.798
52.0000,0.801
52.0400,0.761
52.0800,0.779
52.1200,0.800
52.1600,0.789
52.2000,0.772
52.2400,0.778
52.2800,0.736
52.3200,0.788
52.3600,0.787
52.4000,0.760
52.4400,0.806
52.4800,0.753
52.5200,0.771
52.5600,0.766
52.6000,0.822
52.6400,0.808
52.6800,0.813
52.7200,0.822
52.7600,0.833
52.8000,0.776
52.8400,0.835
52.8800,0.766
52.9200,0.780
52.9600,0.788
53.0000,0.797
53.0400,0.748
53.0800,0.783
53.1200,0.736
53.1600,0.754
53.2000,0.819
53.2400,0.806
53.2800,0.725
53.3200,0.751
53.3600,0.762
53.4000,0.747
53.4400,0.733
53.4800,0.761
53.5200,0.778
53.5600,0.731
53.6000,0.700
53.6400,0.770
53.6800,0.691
53.7200,0.746
53.7600,0.728
53.8000,0.740
53.8400,0.784
53.8800,0.835
53.9200,0.767
53.9600,0.750
54.0000,0.742
54.0400,0.761
54.0800,0.703
54.1200,0.802
54.1600,0.771
54.2000,0.803
54.2400,0.770
54.2800,0.840
54.3200,0.954
54.3600,1.238
54.4000,1.870
54.4400,1.802
54.4800,1.337
54.5200,1.215
54.5600,1.380
54.6000,1.179
54.6400,0.911
54.6800,0.718
54.7200,0.732
54.7600,0.745
54.8000,0.731
54.8400,0.763
54.8800,0.722
54.9200,0.730
54.9600,0.717
55.0000,0.751
55.0400,0.741
55.0800,0.746
55.1200,0.758
55.1600,0.746
55.2000,0.686
55.2400,0.708
55.2800,0.729
55.3200,0.732
55.3600,0.765
55.4000,0.728
55.4400,0.757
55.4800,0.762
55.5200,0.730
55.5600,0.753
55.6000,0.710
55.6400,0.772
55.6800,0.779
55.7200,0.801
55.7600,0.813
55.8000,0.817
55.8400,0.748
55.8800,0.843
55.9200,0.861
55.9600,0.943
56.0000,0.961
56.0400,0.913
56.0800,0.945
56.1200,0.876
56.1600,0.839
56.2000,0.829
56.2400,0.846
56.2800,0.855
56.3200,0.860
56.3600,0.842
56.4000,0.883
56.4400,0.980
56.4800,1.286
56.5200,1.335
56.5600,1.098
56.6000,0.965
56.6400,1.075
56.6800,1.095
56.7200,0.999
56.7600,0.894
56.8000,0.835
56.8400,0.814
56.8800,0.789
56.9200,0.770
56.9600,0.764
57.0000,0.773
57.0400,0.786
57.0800,0.777
57.1200,0.828
57.1600,0.710
57.2000,0.717
57.2400,0.698
57.2800,0.734
57.3200,0.778
57.3600,0.751
57.4000,0.710
57.4400,0.719
57.4800,0.748
57.5200,0.771
57.5600,0.722
57.6000,0.763
57.6400,0.716
57.6800,0.702
57.7200,0.748
57.7600,0.723
57.8000,0.752
57.8400,0.699
57.8800,0.746
57.9200,0.691
57.9600,0.656
58.0000,0.646
58.0400,0.691
58.0800,0.688
58.1200,0.670
58.1600,0.726
58.2000,0.653
58.2400,0.635
58.2800,0.668
58.3200,0.723
58.3600,0.690
58.4000,0.643
58.4400,0.672
58.4800,0.695
58.5200,0.636
58.5600,0.659
58.6000,0.667
58.6400,0.668
58.6800,0.660
58.7200,0.655
58.7600,0.679
58.8000,0.662
58.8400,0.652
58.8800,0.683
58.9200,0.680
58.9600,0.647
59.0000,0.756
59.0400,0.729
59.0800,0.758
59.1200,0.796
59.1600,0.808
59.2000,0.729
59.2400,0.740
59.2800,0.713
59.3200,0.688
59.3600,0.711
59.4000,0.634
59.4400,0.670
59.4800,0.650
59.5200,0.630
59.5600,0.643
59.6000,0.696
59.6400,0.639
59.6800,0.669
59.7200,0.616
59.7600,0.605
59.8000,0.682
59.8400,0.623
59.8800,0.634
59.9200,0.665
59.9600,0.639
60.0000,0.625
60.0400,0.621
60.0800,0.673
60.1200,0.664
60.1600,0.664
60.2000,0.633
60.2400,0.686
60.2800,0.663
60.3200,0.654
60.3600,0.663
60.4000,0.724
60.4400,0.744
60.4800,0.811
60.5200,0.939
60.5600,0.956
60.6000,1.241
60.6400,1.387
60.6800,1.331
60.7200,1.168
60.7600,1.116
60.8000,1.161
60.8400,1.078
60.8800,0.950
60.9200,0.888
60.9600,0.787
61.0000,0.773
61.0400,0.724
61.0800,0.717
61.1200,0.626
61.1600,0.692
61.2000,0.642
61.2400,0.640
61.2800,0.676
61.3200,0.644
61.3600,0.640
61.4000,0.695
61.4400,0.683
61.4800,0.641
61.5200,0.667
61.5600,0.676
61.6000,0.703
61.6400,0.795
61.6800,0.721
61.7200,0.663
61.7600,0.638
61.8000,0.702
61.8400,0.635
61.8800,0.663
61.9200,0.658
61.9600,0.669
62.0000,0.672
62.0400,0.683
62.0800,0.710
62.1200,0.742
62.1600,0.796
62.2000,0.829
62.2400,0.769
62.2800,0.760
62.3200,0.758
62.3600,0.749
62.4000,0.675
62.4400,0.709
62.4800,0.678
62.5200,0.690
62.5600,0.670
62.6000,0.668
62.6400,0.714
62.6800,0.692
62.7200,0.660
62.7600,0.676
62.8000,0.676
62.8400,0.649
62.8800,0.668
62.9200,0.686
62.9600,0.677
63.0000,0.671
63.0400,0.710
63.0800,0.744
63.1200,0.912
63.1600,1.257
63.2000,1.108
63.2400,0.894
63.2800,0.816
63.3200,0.903
63.3600,0.915
63.4000,0.810
63.4400,0.760
63.4800,0.723
63.5200,0.638
63.5600,0.741
63.6000,0.736
63.6400,0.831
63.6800,0.786
63.7200,0.746
63.7600,0.677
63.8000,0.705
63.8400,0.720
63.8800,0.693
63.9200,0.650
63.9600,0.633
64.0000,0.631
64.0400,0.599
64.0800,0.616
64.1200,0.612
64.1600,0.616
64.2000,0.635
64.2400,0.610
64.2800,0.634
64.3200,0.650
64.3600,0.619
64.4000,0.611
64.4400,0.617
64.4800,0.618
64.5200,0.609
64.5600,0.609
64.6000,0.650
64.6400,0.597
64.6800,0.607
64.7200,0.661
64.7600,0.597
64.8000,0.614
64.8400,0.617
64.8800,0.657
64.9200,0.649
64.9600,0.626
65.0000,0.692
65.0400,0.682
65.0800,0.659
65.1200,0.676
65.1600,0.670
65.2000,0.717
65.2400,0.685
65.2800,0.707
65.3200,0.689
65.3600,0.700
65.4000,0.711
65.4400,0.689
65.4800,0.627
65.5200,0.654
65.5600,0.707
65.6000,0.711
65.6400,0.642
65.6800,0.674
65.7200,0.741
65.7600,0.728
65.8000,0.733
65.8400,0.716
65.8800,0.769
65.9200,0.724
65.9600,0.742
66.0000,0.707
66.0400,0.705
66.0800,0.730
66.1200,0.768
66.1600,0.754
66.2000,0.754
66.2400,0.856
66.2800,0.770
66.3200,0.816
66.3600,0.830
66.4000,0.835
66.4400,0.820
66.4800,0.840
66.5200,0.858
66.5600,0.898
66.6000,0.912
66.6400,0.864
66.6800,0.939
66.7200,0.886
66.7600,0.954
66.8000,1.013
66.8400,1.025
66.8800,1.169
66.9200,1.336
66.9600,1.736
67.0000,1.636
67.0400,1.336
67.0800,1.230
67.1200,1.247
67.1600,1.440
67.2000,1.377
67.2400,1.230
67.2800,1.171
67.3200,1.137
67.3600,1.181
67.4000,1.221
67.4400,1.227
67.4800,1.260
67.5200,1.261
67.5600,1.263
67.6000,1.295
67.6400,1.319
67.6800,1.340
67.7200,1.408
67.7600,1.448
67.8000,1.455
67.8400,1.522
67.8800,1.599
67.9200,1.585
67.9600,1.655
68.0000,1.709
68.0400,1.707
68.0800,1.809
68.1200,1.811
68.1600,1.858
68.2000,1.893
68.2400,2.008
68.2800,2.038
68.3200,1.991
68.3600,2.211
68.4000,2.227
68.4400,2.286
68.4800,2.447
68.5200,2.480
68.5600,2.692
68.6000,2.917
68.6400,3.192
68.6800,3.829
68.7200,4.725
68.7600,5.981
68.8000,7.104
68.8400,7.259
68.8800,7.522
68.9200,8.889
68.9600,12.484
69.0000,20.651
69.0400,45.605
69.0800,205.647
69.1200,491.604
69.1600,365.862
69.2000,99.647
69.2400,49.347
69.2800,127.696
69.3200,254.895
69.3600,179.000
69.4000,48.581
69.4400,16.997
69.4800,10.235
69.5200,7.586
69.5600,6.305
69.6000,5.277
69.6400,4.588
69.6800,4.115
69.7200,3.686
69.7600,3.410
69.8000,3.176
69.8400,2.933
69.8800,2.738
69.9200,2.595
69.9600,2.532
70.0000,2.379
70.0400,2.239
70.0800,2.225
70.1200,2.164
70.1600,2.050
70.2000,1.916
70.2400,1.857
70.2800,1.835
70.3200,1.811
70.3600,1.694
70.4000,1.629
70.4400,1.600
70.4800,1.600
70.5200,1.487
70.5600,1.488
70.6000,1.459
70.6400,1.455
70.6800,1.426
70.7200,1.312
70.7600,1.317
70.8000,1.241
70.8400,1.229
70.8800,1.215
70.9200,1.168
70.9600,1.121
71.0000,1.087
71.0400,1.151
71.0800,1.095
71.1200,1.043
71.1600,1.046
71.2000,1.062
71.2400,1.025
71.2800,0.938
71.3200,0.910
71.3600,0.911
71.4000,0.914
71.4400,0.873
71.4800,0.865
71.5200,0.855
71.5600,0.879
71.6000,0.807
71.6400,0.841
71.6800,0.816
71.7200,0.758
71.7600,0.754
71.8000,0.781
71.8400,0.740
71.8800,0.785
71.9200,0.728
71.9600,0.734
72.0000,0.661
72.0400,0.653
72.0800,0.679
72.1200,0.650
72.1600,0.652
72.2000,0.655
72.2400,0.634
72.2800,0.636
72.3200,0.632
72.3600,0.647
72.4000,0.598
72.4400,0.605
72.4800,0.579
72.5200,0.588
72.5600,0.573
72.6000,0.547
72.6400,0.548
72.6800,0.525
72.7200,0.572
72.7600,0.535
72.8000,0.544
72.8400,0.536
72.8800,0.553
72.9200,0.531
72.9600,0.547
73.0000,0.543
73.0400,0.520
73.0800,0.520
73.1200,0.488
73.1600,0.502
73.2000,0.508
73.2400,0.472
73.2800,0.514
73.3200,0.534
73.3600,0.508
73.4000,0.502
73.4400,0.472
73.4800,0.467
73.5200,0.491
73.5600,0.539
73.6000,0.501
73.6400,0.514
73.6800,0.530
73.7200,0.472
73.7600,0.471
73.8000,0.486
73.8400,0.483
73.8800,0.461
73.9200,0.440
73.9600,0.423
74.0000,0.411
74.0400,0.407
74.0800,0.457
74.1200,0.427
74.1600,0.429
74.2000,0.396
74.2400,0.452
74.2800,0.453
74.3200,0.422
74.3600,0.394
74.4000,0.461
74.4400,0.405
74.4800,0.392
74.5200,0.401
74.5600,0.409
74.6000,0.405
74.6400,0.420
74.6800,0.422
74.7200,0.385
74.7600,0.397
74.8000,0.393
74.8400,0.395
74.8800,0.438
74.9200,0.389
74.9600,0.449
75.0000,0.447
75.0400,0.444
75.0800,0.455
75.1200,0.453
75.1600,0.424
75.2000,0.427
75.2400,0.390
75.2800,0.436
75.3200,0.442
75.3600,0.401
75.4000,0.400
75.4400,0.406
75.4800,0.374
75.5200,0.366
75.5600,0.363
75.6000,0.350
75.6400,0.388
75.6800,0.379
75.7200,0.324
75.7600,0.370
75.8000,0.362
75.8400,0.348
75.8800,0.355
75.9200,0.364
75.9600,0.371
76.0000,0.351
76.0400,0.332
76.0800,0.375
76.1200,0.335
76.1600,0.358
76.2000,0.357
76.2400,0.394
76.2800,0.359
76.3200,0.422
76.3600,0.427
76.4000,0.400
76.4400,0.426
76.4800,0.397
76.5200,0.412
76.5600,0.375
76.6000,0.417
76.6400,0.371
76.6800,0.375
76.7200,0.348
76.7600,0.371
76.8000,0.347
76.8400,0.326
76.8800,0.330
76.9200,0.336
76.9600,0.356
77.0000,0.366
77.0400,0.382
77.0800,0.341
77.1200,0.371
77.1600,0.413
77.2000,0.364
77.2400,0.341
77.2800,0.365
77.3200,0.332
77.3600,0.353
77.4000,0.337
77.4400,0.317
77.4800,0.310
77.5200,0.335
77.5600,0.337
77.6000,0.313
77.6400,0.315
77.6800,0.352
77.7200,0.372
77.7600,0.351
77.8000,0.372
77.8400,0.333
77.8800,0.329
77.9200,0.316
77.9600,0.345
78.0000,0.354
78.0400,0.322
78.0800,0.313
78.1200,0.324
78.1600,0.309
78.2000,0.318
78.2400,0.305
78.2800,0.315
78.3200,0.319
78.3600,0.355
78.4000,0.321
78.4400,0.320
78.4800,0.313
78.5200,0.305
78.5600,0.319
78.6000,0.312
78.6400,0.297
78.6800,0.318
78.7200,0.328
78.7600,0.352
78.8000,0.288
78.8400,0.350
78.8800,0.323
78.9200,0.288
78.9600,0.332
79.0000,0.334
79.0400,0.349
79.0800,0.343
79.1200,0.342
79.1600,0.341
79.2000,0.318
79.2400,0.344
79.2800,0.308
79.3200,0.337
79.3600,0.327
79.4000,0.324
79.4400,0.340
79.4800,0.305
79.5200,0.299
79.5600,0.324
79.6000,0.327
79.6400,0.304
79.6800,0.284
79.7200,0.315
79.7600,0.303
79.8000,0.281
79.8400,0.289
79.8800,0.310
79.9200,0.309
79.9600,0.279
80.0000,0.304
