theta,intensity
5.0000,6.088
5.0400,5.782
5.0800,5.877
5.1200,5.551
5.1600,5.432
5.2000,5.509
5.2400,5.354
5.2800,5.286
5.3200,5.094
5.3600,5.068
5.4000,4.859
5.4400,4.982
5.4800,4.812
5.5200,4.727
5.5600,4.681
5.6000,4.587
5.6400,4.588
5.6800,4.396
5.7200,4.357
5.7600,4.473
5.8000,4.393
5.8400,4.300
5.8800,4.260
5.9200,4.359
5.9600,4.423
6.0000,4.407
6.0400,4.308
6.0800,4.276
6.1200,4.286
6.1600,4.254
6.2000,4.285
6.2400,4.211
6.2800,4.249
6.3200,4.278
6.3600,4.310
6.4000,4.252
6.4400,4.221
6.4800,4.184
6.5200,4.252
6.5600,4.178
6.6000,4.208
6.6400,4.091
6.6800,4.090
6.7200,4.223
6.7600,4.240
6.8000,4.157
6.8400,4.085
6.8800,4.132
6.9200,4.170
6.9600,4.228
7.0000,4.320
7.0400,4.066
7.0800,4.108
7.1200,4.040
7.1600,4.136
7.2000,4.160
7.2400,4.170
7.2800,4.142
7.3200,4.092
7.3600,4.087
7.4000,4.012
7.4400,4.134
7.4800,4.064
7.5200,4.020
7.5600,4.048
7.6000,3.962
7.6400,4.149
7.6800,4.033
7.7200,4.049
7.7600,4.020
7.8000,4.043
7.8400,3.909
7.8800,4.043
7.9200,4.016
7.9600,3.991
8.0000,3.966
8.0400,3.940
8.0800,4.037
8.1200,3.929
8.1600,4.019
8.2000,3.949
8.2400,3.981
8.2800,3.917
8.3200,3.966
8.3600,3.906
8.4000,3.879
8.4400,3.975
8.4800,3.885
8.5200,3.845
8.5600,3.905
8.6000,3.761
8.6400,3.940
8.6800,3.944
8.7200,3.901
8.7600,3.834
8.8000,3.971
8.8400,3.879
8.8800,3.901
8.9200,3.929
8.9600,3.834
9.0000,3.902
9.0400,3.941
9.0800,3.944
9.1200,3.807
9.1600,3.791
9.2000,3.872
9.2400,3.771
9.2800,3.844
9.3200,3.869
9.3600,3.800
9.4000,3.852
9.4400,3.863
9.4800,3.825
9.5200,3.760
9.5600,3.764
9.6000,3.686
9.6400,3.768
9.6800,3.684
9.7200,3.785
9.7600,3.713
9.8000,3.832
9.8400,3.694
9.8800,3.721
9.9200,3.796
9.9600,3.719
10.0000,3.768
10.0400,3.826
10.0800,3.739
10.1200,3.775
10.1600,3.737
10.2000,3.758
10.2400,3.630
10.2800,3.693
10.3200,3.771
10.3600,3.572
10.4000,3.730
10.4400,3.717
10.4800,3.750
10.5200,3.728
10.5600,3.745
10.6000,3.613
10.6400,3.621
10.6800,3.693
10.7200,3.625
10.7600,3.644
10.8000,3.616
10.8400,3.596
10.8800,3.622
10.9200,3.677
10.9600,3.688
11.0000,3.622
11.0400,3.667
11.0800,3.666
11.1200,3.607
11.1600,3.604
11.2000,3.520
11.2400,3.587
11.2800,3.524
11.3200,3.595
11.3600,3.620
11.4000,3.636
11.4400,3.581
11.4800,3.657
11.5200,3.617
11.5600,3.597
11.6000,3.586
11.6400,3.577
11.6800,3.564
11.7200,3.610
11.7600,3.652
11.8000,3.561
11.8400,3.539
11.8800,3.518
11.9200,3.409
11.9600,3.601
12.0000,3.558
12.0400,3.508
12.0800,3.453
12.1200,3.509
12.1600,3.618
12.2000,3.562
12.2400,3.624
12.2800,3.516
12.3200,3.568
12.3600,3.441
12.4000,3.556
12.4400,3.435
12.4800,3.527
12.5200,3.488
12.5600,3.519
12.6000,3.352
12.6400,3.478
12.6800,3.348
12.7200,3.425
12.7600,3.458
12.8000,3.318
12.8400,3.421
12.8800,3.441
12.9200,3.413
12.9600,3.430
13.0000,3.379
13.0400,3.523
13.0800,3.512
13.1200,3.408
13.1600,3.525
13.2000,3.441
13.2400,3.387
13.2800,3.412
13.3200,3.378
13.3600,3.416
13.4000,3.414
13.4400,3.293
13.4800,3.436
13.5200,3.348
13.5600,3.406
13.6000,3.422
13.6400,3.313
13.6800,3.353
13.7200,3.412
13.7600,3.452
13.8000,3.378
13.8400,3.340
13.8800,3.270
13.9200,3.289
13.9600,3.378
14.0000,3.270
14.0400,3.316
14.0800,3.383
14.1200,3.356
14.1600,3.282
14.2000,3.222
14.2400,3.251
14.2800,3.292
14.3200,3.334
14.3600,3.286
14.4000,3.259
14.4400,3.208
14.4800,3.317
14.5200,3.238
14.5600,3.276
14.6000,3.259
14.6400,3.321
14.6800,3.324
14.7200,3.227
14.7600,3.212
14.8000,3.250
14.8400,3.194
14.8800,3.249
14.9200,3.266
14.9600,3.234
15.0000,3.185
15.0400,3.162
15.0800,3.234
15.1200,3.132
15.1600,3.236
15.2000,3.259
15.2400,3.170
15.2800,3.119
15.3200,3.128
15.3600,3.144
15.4000,3.128
15.4400,3.167
15.4800,3.148
15.5200,3.191
15.5600,3.038
15.6000,3.182
15.6400,3.167
15.6800,3.153
15.7200,3.272
15.7600,3.132
15.8000,3.170
15.8400,3.228
15.8800,3.183
15.9200,3.180
15.9600,3.351
16.0000,3.183
16.0400,3.083
16.0800,3.153
16.1200,3.121
16.1600,3.134
16.2000,3.173
16.2400,3.131
16.2800,3.078
16.3200,3.148
16.3600,3.030
16.4000,3.096
16.4400,3.174
16.4800,3.199
16.5200,3.120
16.5600,3.050
16.6000,3.075
16.6400,3.097
16.6800,3.047
16.7200,3.063
16.7600,3.026
16.8000,3.090
16.8400,3.044
16.8800,3.085
16.9200,3.023
16.9600,3.023
17.0000,3.003
17.0400,3.099
17.0800,2.998
17.1200,2.964
17.1600,3.148
17.2000,3.082
17.2400,3.059
17.2800,2.970
17.3200,3.005
17.3600,3.072
17.4000,3.015
17.4400,3.079
17.4800,2.995
17.5200,3.023
17.5600,3.081
17.6000,2.937
17.6400,3.023
17.6800,2.977
17.7200,2.992
17.7600,3.025
17.8000,2.924
17.8400,3.035
17.8800,2.990
17.9200,2.864
17.9600,2.894
18.0000,2.914
18.0400,2.938
18.0800,2.973
18.1200,2.978
18.1600,2.951
18.2000,2.916
18.2400,2.972
18.2800,2.894
18.3200,2.933
18.3600,2.958
18.4000,2.834
18.4400,2.852
18.4800,3.028
18.5200,2.893
18.5600,2.879
18.6000,2.874
18.6400,2.930
18.6800,2.806
18.7200,2.889
18.7600,2.935
18.8000,2.905
18.8400,2.940
18.8800,2.885
18.9200,2.883
18.9600,2.800
19.0000,2.865
19.0400,2.799
19.0800,2.904
19.1200,2.919
19.1600,2.850
19.2000,2.835
19.2400,2.872
19.2800,2.753
19.3200,2.782
19.3600,2.801
19.4000,2.786
19.4400,2.710
19.4800,2.726
19.5200,2.849
19.5600,2.807
19.6000,2.864
19.6400,2.887
19.6800,2.749
19.7200,2.799
19.7600,2.685
19.8000,2.670
19.8400,2.708
19.8800,2.670
19.9200,2.765
19.9600,2.834
20.0000,2.732
20.0400,2.776
20.0800,2.676
20.1200,2.700
20.1600,2.709
20.2000,2.729
20.2400,2.722
20.2800,2.739
20.3200,2.784
20.3600,2.723
20.4000,2.719
20.4400,2.711
20.4800,2.650
20.5200,2.734
20.5600,2.681
20.6000,2.702
20.6400,2.665
20.6800,2.658
20.7200,2.767
20.7600,2.764
20.8000,2.835
20.8400,2.749
20.8800,2.656
20.9200,2.747
20.9600,2.681
21.0000,2.683
21.0400,2.658
21.0800,2.723
21.1200,2.798
21.1600,2.670
21.2000,2.687
21.2400,2.757
21.2800,2.842
21.3200,2.802
21.3600,2.982
21.4000,3.025
21.4400,3.456
21.4800,3.577
21.5200,3.393
21.5600,3.152
21.6000,2.979
21.6400,2.865
21.6800,2.757
21.7200,2.789
21.7600,2.712
21.8000,2.671
21.8400,2.628
21.8800,2.663
21.9200,2.730
21.9600,2.608
22.0000,2.545
22.0400,2.611
22.0800,2.554
22.1200,2.645
22.1600,2.598
22.2000,2.508
22.2400,2.596
22.2800,2.584
22.3200,2.581
22.3600,2.601
22.4000,2.549
22.4400,2.504
22.4800,2.607
22.5200,2.581
22.5600,2.510
22.6000,2.552
22.6400,2.481
22.6800,2.618
22.7200,2.455
22.7600,2.461
22.8000,2.557
22.8400,2.523
22.8800,2.531
22.9200,2.517
22.9600,2.430
23.0000,2.504
23.0400,2.495
23.0800,2.574
23.1200,2.517
23.1600,2.517
23.2000,2.468
23.2400,2.477
23.2800,2.458
23.3200,2.411
23.3600,2.501
23.4000,2.512
23.4400,2.447
23.4800,2.432
23.5200,2.355
23.5600,2.444
23.6000,2.475
23.6400,2.492
23.6800,2.479
23.7200,2.402
23.7600,2.460
23.8000,2.490
23.8400,2.371
23.8800,2.472
23.9200,2.414
23.9600,2.383
24.0000,2.369
24.0400,2.396
24.0800,2.323
24.1200,2.375
24.1600,2.433
24.2000,2.338
24.2400,2.426
24.2800,2.480
24.3200,2.371
24.3600,2.379
24.4000,2.414
24.4400,2.327
24.4800,2.339
24.5200,2.455
24.5600,2.333
24.6000,2.290
24.6400,2.378
24.6800,2.369
24.7200,2.325
24.7600,2.389
24.8000,2.286
24.8400,2.337
24.8800,2.363
24.9200,2.333
24.9600,2.354
25.0000,2.391
25.0400,2.301
25.0800,2.318
25.1200,2.193
25.1600,2.281
25.2000,2.297
25.2400,2.264
25.2800,2.298
25.3200,2.296
25.3600,2.317
25.4000,2.319
25.4400,2.256
25.4800,2.245
25.5200,2.241
25.5600,2.301
25.6000,2.330
25.6400,2.291
25.6800,2.190
25.7200,2.186
25.7600,2.234
25.8000,2.169
25.8400,2.304
25.8800,2.249
25.9200,2.167
25.9600,2.217
26.0000,2.253
26.0400,2.234
26.0800,2.288
26.1200,2.265
26.1600,2.167
26.2000,2.279
26.2400,2.198
26.2800,2.288
26.3200,2.294
26.3600,2.267
26.4000,2.231
26.4400,2.186
26.4800,2.280
26.5200,2.243
26.5600,2.190
26.6000,2.141
26.6400,2.201
26.6800,2.179
26.7200,2.134
26.7600,2.115
26.8000,2.160
26.8400,2.204
26.8800,2.146
26.9200,2.195
26.9600,2.094
27.0000,2.076
27.0400,2.118
27.0800,2.211
27.1200,2.157
27.1600,2.125
27.2000,2.095
27.2400,2.111
27.2800,2.191
27.3200,2.169
27.3600,2.163
27.4000,2.119
27.4400,2.077
27.4800,2.166
27.5200,2.068
27.5600,2.100
27.6000,2.112
27.6400,2.103
27.6800,2.109
27.7200,2.114
27.7600,2.085
27.8000,2.109
27.8400,2.101
27.8800,2.076
27.9200,2.100
27.9600,2.143
28.0000,2.169
28.0400,2.159
28.0800,2.160
28.1200,2.162
28.1600,2.079
28.2000,2.121
28.2400,2.034
28.2800,2.033
28.3200,2.056
28.3600,2.086
28.4000,2.153
28.4400,2.097
28.4800,2.003
28.5200,2.135
28.5600,2.116
28.6000,2.090
28.6400,2.103
28.6800,2.102
28.7200,2.086
28.7600,2.062
28.8000,2.110
28.8400,2.164
28.8800,2.083
28.9200,2.089
28.9600,2.112
29.0000,2.051
29.0400,2.105
29.0800,2.065
29.1200,2.097
29.1600,2.024
29.2000,2.032
29.2400,2.109
29.2800,2.082
29.3200,2.080
29.3600,2.013
29.4000,2.126
29.4400,2.126
29.4800,2.127
29.5200,2.123
29.5600,2.069
29.6000,2.052
29.6400,2.098
29.6800,2.033
29.7200,2.151
29.7600,2.165
29.8000,2.140
29.8400,2.177
29.8800,2.207
29.9200,2.149
29.9600,2.248
30.0000,2.263
30.0400,2.223
30.0800,2.267
30.1200,2.382
30.1600,2.320
30.2000,2.483
30.2400,2.487
30.2800,2.638
30.3200,2.866
30.3600,3.105
30.4000,3.424
30.4400,3.904
30.4800,5.163
30.5200,6.999
30.5600,8.503
30.6000,8.201
30.6400,7.103
30.6800,5.719
30.7200,4.461
30.7600,3.718
30.8000,3.199
30.8400,3.034
30.8800,2.786
30.9200,2.722
30.9600,2.623
31.0000,2.511
31.0400,2.487
31.0800,2.513
31.1200,2.471
31.1600,2.387
31.2000,2.469
31.2400,2.437
31.2800,2.458
31.3200,2.422
31.3600,2.542
31.4000,2.588
31.4400,2.633
31.4800,2.574
31.5200,2.690
31.5600,2.788
31.6000,2.890
31.6400,2.980
31.6800,3.082
31.7200,3.053
31.7600,3.101
31.8000,3.088
31.8400,3.085
31.8800,3.016
31.9200,2.968
31.9600,2.845
32.0000,2.868
32.0400,2.671
32.0800,2.557
32.1200,2.487
32.1600,2.571
32.2000,2.434
32.2400,2.431
32.2800,2.455
32.3200,2.377
32.3600,2.439
32.4000,2.338
32.4400,2.354
32.4800,2.348
32.5200,2.391
32.5600,2.374
32.6000,2.258
32.6400,2.328
32.6800,2.536
32.7200,2.636
32.7600,2.880
32.8000,3.208
32.8400,5.194
32.8800,10.791
32.9200,11.625
32.9600,9.231
33.0000,8.861
33.0400,6.466
33.0800,3.695
33.1200,2.598
33.1600,2.405
33.2000,2.302
33.2400,2.300
33.2800,2.228
33.3200,2.167
33.3600,2.190
33.4000,2.175
33.4400,2.125
33.4800,2.114
33.5200,2.138
33.5600,2.226
33.6000,2.194
33.6400,2.196
33.6800,2.123
33.7200,2.143
33.7600,2.152
33.8000,2.187
33.8400,2.130
33.8800,2.226
33.9200,2.201
33.9600,2.252
34.0000,2.293
34.0400,2.314
34.0800,2.356
34.1200,2.466
34.1600,2.447
34.2000,2.486
34.2400,2.488
34.2800,2.552
34.3200,2.576
34.3600,2.567
34.4000,2.565
34.4400,2.587
34.4800,2.581
34.5200,2.632
34.5600,2.404
34.6000,2.481
34.6400,2.365
34.6800,2.272
34.7200,2.276
34.7600,2.205
34.8000,2.179
34.8400,2.180
34.8800,2.170
34.9200,2.130
34.9600,2.167
35.0000,2.159
35.0400,2.255
35.0800,2.164
35.1200,2.202
35.1600,2.299
35.2000,2.313
35.2400,2.443
35.2800,2.492
35.3200,2.578
35.3600,2.839
35.4000,3.388
35.4400,3.687
35.4800,3.707
35.5200,3.468
35.5600,3.168
35.6000,2.935
35.6400,2.678
35.6800,2.565
35.7200,2.555
35.7600,2.552
35.8000,2.565
35.8400,2.524
35.8800,2.658
35.9200,2.683
35.9600,2.746
36.0000,2.741
36.0400,2.739
36.0800,2.906
36.1200,2.987
36.1600,3.131
36.2000,3.327
36.2400,4.009
36.2800,4.657
36.3200,4.396
36.3600,3.859
36.4000,3.466
36.4400,3.037
36.4800,2.709
36.5200,2.551
36.5600,2.416
36.6000,2.327
36.6400,2.263
36.6800,2.237
36.7200,2.088
36.7600,2.106
36.8000,2.033
36.8400,1.954
36.8800,1.910
36.9200,1.933
36.9600,1.894
37.0000,1.830
37.0400,1.782
37.0800,1.738
37.1200,1.712
37.1600,1.742
37.2000,1.682
37.2400,1.753
37.2800,1.727
37.3200,1.637
37.3600,1.670
37.4000,1.673
37.4400,1.615
37.4800,1.655
37.5200,1.618
37.5600,1.638
37.6000,1.689
37.6400,1.834
37.6800,1.797
37.7200,1.748
37.7600,1.720
37.8000,1.684
37.8400,1.656
37.8800,1.532
37.9200,1.507
37.9600,1.491
38.0000,1.515
38.0400,1.528
38.0800,1.479
38.1200,1.500
38.1600,1.499
38.2000,1.410
38.2400,1.500
38.2800,1.472
38.3200,1.459
38.3600,1.534
38.4000,1.485
38.4400,1.458
38.4800,1.499
38.5200,1.415
38.5600,1.509
38.6000,1.450
38.6400,1.434
38.6800,1.437
38.7200,1.471
38.7600,1.431
38.8000,1.430
38.8400,1.465
38.8800,1.517
38.9200,1.563
38.9600,1.741
39.0000,1.821
39.0400,2.230
39.0800,3.276
39.1200,3.310
39.1600,2.722
39.2000,2.521
39.2400,2.138
39.2800,1.654
39.3200,1.520
39.3600,1.404
39.4000,1.386
39.4400,1.372
39.4800,1.317
39.5200,1.346
39.5600,1.354
39.6000,1.272
39.6400,1.357
39.6800,1.315
39.7200,1.316
39.7600,1.378
39.8000,1.302
39.8400,1.315
39.8800,1.388
39.9200,1.375
39.9600,1.333
40.0000,1.299
40.0400,1.242
40.0800,1.244
40.1200,1.303
40.1600,1.230
40.2000,1.180
40.2400,1.281
40.2800,1.316
40.3200,1.250
40.3600,1.291
40.4000,1.271
40.4400,1.265
40.4800,1.278
40.5200,1.268
40.5600,1.222
40.6000,1.227
40.6400,1.252
40.6800,1.210
40.7200,1.220
40.7600,1.231
40.8000,1.200
40.8400,1.149
40.8800,1.221
40.9200,1.214
40.9600,1.192
41.0000,1.199
41.0400,1.247
41.0800,1.200
41.1200,1.200
41.1600,1.224
41.2000,1.203
41.2400,1.206
41.2800,1.225
41.3200,1.182
41.3600,1.230
41.4000,1.190
41.4400,1.252
41.4800,1.202
41.5200,1.187
41.5600,1.226
41.6000,1.231
41.6400,1.262
41.6800,1.230
41.7200,1.247
41.7600,1.282
41.8000,1.316
41.8400,1.403
41.8800,1.378
41.9200,1.297
41.9600,1.303
42.0000,1.235
42.0400,1.234
42.0800,1.188
42.1200,1.231
42.1600,1.145
42.2000,1.142
42.2400,1.131
42.2800,1.181
42.3200,1.114
42.3600,1.147
42.4000,1.075
42.4400,1.113
42.4800,1.109
42.5200,1.106
42.5600,1.194
42.6000,1.130
42.6400,1.140
42.6800,1.113
42.7200,1.112
42.7600,1.072
42.8000,1.132
42.8400,1.181
42.8800,1.129
42.9200,1.105
42.9600,1.124
43.0000,1.110
43.0400,1.089
43.0800,1.088
43.1200,1.231
43.1600,1.481
43.2000,1.678
43.2400,1.585
43.2800,1.350
43.3200,1.519
43.3600,1.297
43.4000,1.148
43.4400,1.096
43.4800,1.079
43.5200,1.086
43.5600,1.105
43.6000,1.023
43.6400,1.071
43.6800,1.112
43.7200,1.052
43.7600,1.085
43.8000,1.056
43.8400,1.070
43.8800,1.118
43.9200,1.061
43.9600,1.035
44.0000,1.058
44.0400,1.048
44.0800,1.068
44.1200,1.079
44.1600,1.062
44.2000,1.080
44.2400,1.102
44.2800,1.038
44.3200,1.068
44.3600,1.007
44.4000,1.025
44.4400,1.038
44.4800,1.037
44.5200,1.026
44.5600,1.055
44.6000,1.030
44.6400,1.037
44.6800,1.029
44.7200,1.032
44.7600,0.967
44.8000,1.032
44.8400,1.006
44.8800,1.039
44.9200,0.986
44.9600,1.081
45.0000,1.022
45.0400,1.009
45.0800,1.035
45.1200,1.025
45.1600,1.069
45.2000,1.054
45.2400,1.031
45.2800,1.028
45.3200,1.042
45.3600,1.053
45.4000,1.074
45.4400,1.065
45.4800,1.110
45.5200,1.086
45.5600,1.204
45.6000,1.274
45.6400,1.244
45.6800,1.362
45.7200,1.307
45.7600,1.285
45.8000,1.275
45.8400,1.168
45.8800,1.149
45.9200,1.078
45.9600,1.071
46.0000,1.034
46.0400,1.060
46.0800,1.088
46.1200,1.003
46.1600,1.025
46.2000,1.027
46.2400,1.037
46.2800,0.994
46.3200,1.021
46.3600,1.008
46.4000,1.027
46.4400,1.001
46.4800,1.009
46.5200,1.013
46.5600,1.006
46.6000,1.056
46.6400,1.010
46.6800,1.011
46.7200,1.046
46.7600,1.004
46.8000,1.028
46.8400,1.000
46.8800,1.000
46.9200,0.994
46.9600,1.023
47.0000,1.021
47.0400,1.090
47.0800,1.032
47.1200,1.040
47.1600,1.013
47.2000,1.077
47.2400,0.996
47.2800,1.045
47.3200,1.000
47.3600,1.057
47.4000,1.035
47.4400,1.023
47.4800,1.071
47.5200,1.058
47.5600,1.029
47.6000,1.023
47.6400,1.098
47.6800,1.001
47.7200,1.033
47.7600,1.041
47.8000,1.035
47.8400,1.005
47.8800,0.979
47.9200,0.974
47.9600,0.929
48.0000,0.982
48.0400,0.970
48.0800,0.988
48.1200,0.959
48.1600,0.966
48.2000,0.958
48.2400,1.050
48.2800,0.985
48.3200,0.917
48.3600,0.944
48.4000,0.959
48.4400,0.901
48.4800,0.943
48.5200,0.927
48.5600,0.935
48.6000,0.985
48.6400,0.905
48.6800,0.932
48.7200,0.899
48.7600,0.949
48.8000,0.898
48.8400,0.898
48.8800,0.937
48.9200,0.912
48.9600,0.862
49.0000,0.931
49.0400,0.921
49.0800,0.915
49.1200,0.914
49.1600,0.964
49.2000,0.939
49.2400,1.001
49.2800,0.995
49.3200,0.965
49.3600,0.951
49.4000,0.982
49.4400,0.954
49.4800,0.892
49.5200,0.901
49.5600,0.917
49.6000,0.916
49.6400,0.862
49.6800,0.927
49.7200,0.872
49.7600,0.883
49.8000,0.869
49.8400,0.898
49.8800,0.865
49.9200,0.846
49.9600,0.827
50.0000,0.910
50.0400,0.824
50.0800,0.805
50.1200,0.845
50.1600,0.822
50.2000,0.833
50.2400,0.893
50.2800,0.906
50.3200,0.874
50.3600,0.881
50.4000,0.931
50.4400,0.854
50.4800,0.930
50.5200,0.918
50.5600,0.923
50.6000,0.954
50.6400,0.946
50.6800,1.028
50.7200,0.994
50.7600,1.063
50.8000,1.151
50.8400,1.191
50.8800,1.294
50.9200,1.532
50.9600,1.922
51.0000,2.163
51.0400,2.010
51.0800,1.855
51.1200,1.810
51.1600,1.635
51.2000,1.484
51.2400,1.293
51.2800,1.116
51.3200,1.095
51.3600,1.060
51.4000,0.960
51.4400,0.949
51.4800,0.951
51.5200,0.887
51.5600,0.871
51.6000,0.820
51.6400,0.915
51.6800,0.861
51.7200,0.829
51.7600,0.863
51.8000,0.849
51.8400,0.806
51.8800,0.842
51.9200,0.851
51.9600,0.798
52.0000,0.839
52.0400,0.833
52.0800,0.799
52.1200,0.803
52.1600,0.850
52.2000,0.781
52.2400,0.867
52.2800,0.796
52.3200,0.855
52.3600,0.837
52.4000,0.826
52.4400,0.808
52.4800,0.789
52.5200,0.757
52.5600,0.815
52.6000,0.862
52.6400,0.830
52.6800,0.837
52.7200,0.817
52.7600,0.830
52.8000,0.798
52.8400,0.827
52.8800,0.833
52.9200,0.822
52.9600,0.818
53.0000,0.783
53.0400,0.801
53.0800,0.814
53.1200,0.814
53.1600,0.812
53.2000,0.765
53.2400,0.803
53.2800,0.777
53.3200,0.716
53.3600,0.756
53.4000,0.761
53.4400,0.772
53.4800,0.797
53.5200,0.729
53.5600,0.765
53.6000,0.759
53.6400,0.834
53.6800,0.725
53.7200,0.748
53.7600,0.784
53.8000,0.744
53.8400,0.729
53.8800,0.761
53.9200,0.723
53.9600,0.821
54.0000,0.785
54.0400,0.794
54.0800,0.808
54.1200,0.807
54.1600,0.821
54.2000,0.837
54.2400,0.860
54.2800,0.842
54.3200,0.950
54.3600,1.181
54.4000,1.681
54.4400,1.622
54.4800,1.209
54.5200,1.214
54.5600,1.357
54.6000,1.136
54.6400,0.937
54.6800,0.863
54.7200,0.782
54.7600,0.742
54.8000,0.749
54.8400,0.830
54.8800,0.750
54.9200,0.757
54.9600,0.790
55.0000,0.768
55.0400,0.786
55.0800,0.763
55.1200,0.780
55.1600,0.747
55.2000,0.767
55.2400,0.775
55.2800,0.743
55.3200,0.767
55.3600,0.820
55.4000,0.778
55.4400,0.816
55.4800,0.825
55.5200,0.783
55.5600,0.817
55.6000,0.852
55.6400,0.874
55.6800,0.851
55.7200,0.866
55.7600,0.850
55.8000,0.851
55.8400,0.839
55.8800,0.911
55.9200,0.946
55.9600,0.925
56.0000,0.970
56.0400,0.958
56.0800,0.978
56.1200,0.962
56.1600,0.976
56.2000,1.030
56.2400,0.989
56.2800,0.997
56.3200,1.021
56.3600,1.046
56.4000,1.055
56.4400,1.101
56.4800,1.249
56.5200,1.231
56.5600,1.181
56.6000,1.150
56.6400,1.236
56.6800,1.122
56.7200,1.096
56.7600,1.096
56.8000,1.021
56.8400,0.986
56.8800,1.005
56.9200,0.958
56.9600,0.940
57.0000,0.956
57.0400,0.853
57.0800,0.896
57.1200,0.843
57.1600,0.871
57.2000,0.842
57.2400,0.784
57.2800,0.756
57.3200,0.771
57.3600,0.814
57.4000,0.748
57.4400,0.793
57.4800,0.798
57.5200,0.764
57.5600,0.759
57.6000,0.742
57.6400,0.767
57.6800,0.797
57.7200,0.781
57.7600,0.784
57.8000,0.750
57.8400,0.681
57.8800,0.706
57.9200,0.718
57.9600,0.754
58.0000,0.733
58.0400,0.701
58.0800,0.717
58.1200,0.777
58.1600,0.719
58.2000,0.720
58.2400,0.661
58.2800,0.699
58.3200,0.716
58.3600,0.716
58.4000,0.668
58.4400,0.708
58.4800,0.698
58.5200,0.649
58.5600,0.685
58.6000,0.699
58.6400,0.701
58.6800,0.676
58.7200,0.714
58.7600,0.689
58.8000,0.716
58.8400,0.721
58.8800,0.729
58.9200,0.756
58.9600,0.690
59.0000,0.754
59.0400,0.763
59.0800,0.812
59.1200,0.794
59.1600,0.761
59.2000,0.791
59.2400,0.753
59.2800,0.717
59.3200,0.713
59.3600,0.702
59.4000,0.702
59.4400,0.697
59.4800,0.677
59.5200,0.674
59.5600,0.688
59.6000,0.678
59.6400,0.718
59.6800,0.688
59.7200,0.704
59.7600,0.704
59.8000,0.671
59.8400,0.695
59.8800,0.656
59.9200,0.679
59.9600,0.709
60.0000,0.686
60.0400,0.653
60.0800,0.666
60.1200,0.696
60.1600,0.737
60.2000,0.695
60.2400,0.680
60.2800,0.739
60.3200,0.746
60.3600,0.776
60.4000,0.787
60.4400,0.817
60.4800,0.881
60.5200,0.945
60.5600,1.037
60.6000,1.263
60.6400,1.394
60.6800,1.313
60.7200,1.257
60.7600,1.183
60.8000,1.179
60.8400,1.168
60.8800,1.014
60.9200,0.931
60.9600,0.834
61.0000,0.839
61.0400,0.748
61.0800,0.783
61.1200,0.755
61.1600,0.708
61.2000,0.718
61.2400,0.740
61.2800,0.659
61.3200,0.650
61.3600,0.704
61.4000,0.695
61.4400,0.683
61.4800,0.689
61.5200,0.678
61.5600,0.664
61.6000,0.736
61.6400,0.755
61.6800,0.750
61.7200,0.717
61.7600,0.751
61.8000,0.695
61.8400,0.620
61.8800,0.684
61.9200,0.726
61.9600,0.717
62.0000,0.697
62.0400,0.781
62.0800,0.758
62.1200,0.814
62.1600,0.819
62.2000,0.819
62.2400,0.776
62.2800,0.823
62.3200,0.784
62.3600,0.809
62.4000,0.774
62.4400,0.788
62.4800,0.783
62.5200,0.771
62.5600,0.741
62.6000,0.742
62.6400,0.792
62.6800,0.776
62.7200,0.798
62.7600,0.791
62.8000,0.743
62.8400,0.758
62.8800,0.765
62.9200,0.814
62.9600,0.798
63.0000,0.772
63.0400,0.777
63.0800,0.836
63.1200,0.910
63.1600,0.965
63.2000,0.927
63.2400,0.864
63.2800,0.851
63.3200,0.895
63.3600,0.892
63.4000,0.804
63.4400,0.746
63.4800,0.770
63.5200,0.772
63.5600,0.774
63.6000,0.781
63.6400,0.816
63.6800,0.807
63.7200,0.760
63.7600,0.773
63.8000,0.759
63.8400,0.735
63.8800,0.732
63.9200,0.734
63.9600,0.673
64.0000,0.707
64.0400,0.652
64.0800,0.681
64.1200,0.677
64.1600,0.667
64.2000,0.708
64.2400,0.645
64.2800,0.631
64.3200,0.644
64.3600,0.668
64.4000,0.668
64.4400,0.616
64.4800,0.646
64.5200,0.644
64.5600,0.633
64.6000,0.641
64.6400,0.668
64.6800,0.652
64.7200,0.634
64.7600,0.662
64.8000,0.656
64.8400,0.636
64.8800,0.681
64.9200,0.660
64.9600,0.652
65.0000,0.653
65.0400,0.715
65.0800,0.691
65.1200,0.692
65.1600,0.703
65.2000,0.666
65.2400,0.738
65.2800,0.744
65.3200,0.731
65.3600,0.669
65.4000,0.772
65.4400,0.698
65.4800,0.702
65.5200,0.690
65.5600,0.699
65.6000,0.701
65.6400,0.741
65.6800,0.738
65.7200,0.692
65.7600,0.763
65.8000,0.765
65.8400,0.717
65.8800,0.711
65.9200,0.754
65.9600,0.801
66.0000,0.740
66.0400,0.792
66.0800,0.842
66.1200,0.824
66.1600,0.809
66.2000,0.881
66.2400,0.863
66.2800,0.836
66.3200,0.824
66.3600,0.842
66.4000,0.895
66.4400,0.925
66.4800,0.933
66.5200,0.915
66.5600,0.955
66.6000,0.986
66.6400,0.961
66.6800,1.025
66.7200,0.996
66.7600,0.971
66.8000,0.993
66.8400,1.139
66.8800,1.129
66.9200,1.364
66.9600,1.507
67.0000,1.312
67.0400,1.221
67.0800,1.236
67.1200,1.305
67.1600,1.341
67.2000,1.281
67.2400,1.199
67.2800,1.184
67.3200,1.256
67.3600,1.216
67.4000,1.261
67.4400,1.273
67.4800,1.296
67.5200,1.292
67.5600,1.345
67.6000,1.390
67.6400,1.401
67.6800,1.483
67.7200,1.544
67.7600,1.605
67.8000,1.577
67.8400,1.627
67.8800,1.596
67.9200,1.701
67.9600,1.736
68.0000,1.872
68.0400,1.817
68.0800,1.906
68.1200,1.799
68.1600,1.911
68.2000,2.001
68.2400,2.055
68.2800,2.087
68.3200,2.163
68.3600,2.198
68.4000,2.188
68.4400,2.327
68.4800,2.413
68.5200,2.511
68.5600,2.704
68.6000,2.798
68.6400,3.295
68.6800,3.723
68.7200,4.942
68.7600,6.174
68.8000,7.121
68.8400,7.080
68.8800,7.328
68.9200,8.773
68.9600,12.375
69.0000,20.806
69.0400,51.839
69.0800,255.205
69.1200,490.936
69.1600,298.427
69.2000,76.123
69.2400,50.844
69.2800,149.683
69.3200,249.796
69.3600,144.168
69.4000,37.207
69.4400,14.646
69.4800,9.505
69.5200,7.230
69.5600,6.028
69.6000,4.986
69.6400,4.306
69.6800,4.100
69.7200,3.435
69.7600,3.373
69.8000,3.039
69.8400,2.696
69.8800,2.518
69.9200,2.553
69.9600,2.379
70.0000,2.382
70.0400,2.302
70.0800,2.208
70.1200,2.107
70.1600,2.055
70.2000,1.995
70.2400,1.869
70.2800,1.775
70.3200,1.739
70.3600,1.648
70.4000,1.654
70.4400,1.578
70.4800,1.529
70.5200,1.475
70.5600,1.432
70.6000,1.467
70.6400,1.424
70.6800,1.380
70.7200,1.308
70.7600,1.229
70.8000,1.255
70.8400,1.203
70.8800,1.254
70.9200,1.145
70.9600,1.112
71.0000,1.080
71.0400,1.089
71.0800,1.044
71.1200,1.052
71.1600,1.018
71.2000,0.959
71.2400,1.010
71.2800,0.928
71.3200,0.904
71.3600,0.871
71.4000,0.911
71.4400,0.874
71.4800,0.891
71.5200,0.816
71.5600,0.834
71.6000,0.801
71.6400,0.767
71.6800,0.765
71.7200,0.799
71.7600,0.764
71.8000,0.792
71.8400,0.751
71.8800,0.759
71.9200,0.744
71.9600,0.691
72.0000,0.714
72.0400,0.697
72.0800,0.658
72.1200,0.698
72.1600,0.662
72.2000,0.643
72.2400,0.626
72.2800,0.602
72.3200,0.601
72.3600,0.657
72.4000,0.625
72.4400,0.594
72.4800,0.596
72.5200,0.585
72.5600,0.589
72.6000,0.594
72.6400,0.616
72.6800,0.552
72.7200,0.577
72.7600,0.566
72.8000,0.519
72.8400,0.588
72.8800,0.542
72.9200,0.535
72.9600,0.555
73.0000,0.490
73.0400,0.511
73.0800,0.538
73.1200,0.483
73.1600,0.502
73.2000,0.510
73.2400,0.504
73.2800,0.523
73.3200,0.521
73.3600,0.484
73.4000,0.516
73.4400,0.508
73.4800,0.481
73.5200,0.477
73.5600,0.467
73.6000,0.479
73.6400,0.462
73.6800,0.559
73.7200,0.468
73.7600,0.520
73.8000,0.492
73.8400,0.500
73.8800,0.478
73.9200,0.467
73.9600,0.441
74.0000,0.438
74.0400,0.457
74.0800,0.429
74.1200,0.440
74.1600,0.422
74.2000,0.443
74.2400,0.430
74.2800,0.455
74.3200,0.425
74.3600,0.402
74.4000,0.460
74.4400,0.415
74.4800,0.411
74.5200,0.421
74.5600,0.407
74.6000,0.452
74.6400,0.388
74.6800,0.404
74.7200,0.402
74.7600,0.412
74.8000,0.426
74.8400,0.424
74.8800,0.420
74.9200,0.447
74.9600,0.448
75.0000,0.482
75.0400,0.473
75.0800,0.462
75.1200,0.425
75.1600,0.440
75.2000,0.451
75.2400,0.458
75.2800,0.469
75.3200,0.447
75.3600,0.389
75.4000,0.387
75.4400,0.403
75.4800,0.390
75.5200,0.395
75.5600,0.401
75.6000,0.379
75.6400,0.363
75.6800,0.401
75.7200,0.371
75.7600,0.423
75.8000,0.420
75.8400,0.410
75.8800,0.362
75.9200,0.393
75.9600,0.372
76.0000,0.405
76.0400,0.398
76.0800,0.383
76.1200,0.366
76.1600,0.383
76.2000,0.383
76.2400,0.399
76.2800,0.429
76.3200,0.420
76.3600,0.452
76.4000,0.440
76.4400,0.436
76.4800,0.425
76.5200,0.412
76.5600,0.404
76.6000,0.406
76.6400,0.391
76.6800,0.370
76.7200,0.408
76.7600,0.375
76.8000,0.353
76.8400,0.381
76.8800,0.375
76.9200,0.359
76.9600,0.346
77.0000,0.395
77.0400,0.357
77.0800,0.353
77.1200,0.376
77.1600,0.347
77.2000,0.352
77.2400,0.360
77.2800,0.406
77.3200,0.345
77.3600,0.358
77.4000,0.369
77.4400,0.330
77.4800,0.330
77.5200,0.341
77.5600,0.364
77.6000,0.350
77.6400,0.382
77.6800,0.350
77.7200,0.358
77.7600,0.406
77.8000,0.363
77.8400,0.397
77.8800,0.351
77.9200,0.363
77.9600,0.351
78.0000,0.356
78.0400,0.381
78.0800,0.357
78.1200,0.337
78.1600,0.321
78.2000,0.326
78.2400,0.315
78.2800,0.355
78.3200,0.324
78.3600,0.342
78.4000,0.323
78.4400,0.284
78.4800,0.338
78.5200,0.303
78.5600,0.316
78.6000,0.345
78.6400,0.314
78.6800,0.300
78.7200,0.339
78.7600,0.301
78.8000,0.350
78.8400,0.290
78.8800,0.341
78.9200,0.307
78.9600,0.297
79.0000,0.317
79.0400,0.343
79.0800,0.364
79.1200,0.349
79.1600,0.360
79.2000,0.321
79.2400,0.331
79.2800,0.347
79.3200,0.366
79.3600,0.356
79.4000,0.384
79.4400,0.309
79.4800,0.350
79.5200,0.312
79.5600,0.288
79.6000,0.291
79.6400,0.341
79.6800,0.336
79.7200,0.318
79.7600,0.303
79.8000,0.304
79.8400,0.272
79.8800,0.314
79.9200,0.310
79.9600,0.287
80.0000,0.308
