theta,intensity
5.0000,6.142
5.0400,6.065
5.0800,5.905
5.1200,5.805
5.1600,5.665
5.2000,5.635
5.2400,5.442
5.2800,5.318
5.3200,5.352
5.3600,5.303
5.4000,5.127
5.4400,4.923
5.4800,4.926
5.5200,4.833
5.5600,4.873
5.6000,4.738
5.6400,4.579
5.6800,4.675
5.7200,4.611
5.7600,4.411
5.8000,4.406
5.8400,4.400
5.8800,4.359
5.9200,4.347
5.9600,4.307
6.0000,4.402
6.0400,4.407
6.0800,4.288
6.1200,4.233
6.1600,4.342
6.2000,4.213
6.2400,4.268
6.2800,4.289
6.3200,4.356
6.3600,4.222
6.4000,4.196
6.4400,4.230
6.4800,4.140
6.5200,4.281
6.5600,4.108
6.6000,4.260
6.6400,4.115
6.6800,4.162
6.7200,4.117
6.7600,4.215
6.8000,4.149
6.8400,4.082
6.8800,4.173
6.9200,4.124
6.9600,4.099
7.0000,4.040
7.0400,4.087
7.0800,4.164
7.1200,4.098
7.1600,4.002
7.2000,4.100
7.2400,4.058
7.2800,4.100
7.3200,4.145
7.3600,4.110
7.4000,3.942
7.4400,4.083
7.4800,4.018
7.5200,4.073
7.5600,3.926
7.6000,4.019
7.6400,4.150
7.6800,3.956
7.7200,4.006
7.7600,4.069
7.8000,4.082
7.8400,4.084
7.8800,4.089
7.9200,4.013
7.9600,3.993
8.0000,3.994
8.0400,4.075
8.0800,3.850
8.1200,3.884
8.1600,3.771
8.2000,3.877
8.2400,4.031
8.2800,3.958
8.3200,3.972
8.3600,3.907
8.4000,3.885
8.4400,3.931
8.4800,3.818
8.5200,3.902
8.5600,3.879
8.6000,3.968
8.6400,3.919
8.6800,3.940
8.7200,3.949
8.7600,3.823
8.8000,3.880
8.8400,3.793
8.8800,3.831
8.9200,3.832
8.9600,3.848
9.0000,3.816
9.0400,3.895
9.0800,3.853
9.1200,3.847
9.1600,3.812
9.2000,3.738
9.2400,3.780
9.2800,3.805
9.3200,3.793
9.3600,3.719
9.4000,3.738
9.4400,3.767
9.4800,3.815
9.5200,3.776
9.5600,3.778
9.6000,3.715
9.6400,3.794
9.6800,3.884
9.7200,3.762
9.7600,3.822
9.8000,3.797
9.8400,3.801
9.8800,3.792
9.9200,3.668
9.9600,3.672
10.0000,3.767
10.0400,3.789
10.0800,3.787
10.1200,3.835
10.1600,3.734
10.2000,3.693
10.2400,3.700
10.2800,3.755
10.3200,3.811
10.3600,3.756
10.4000,3.700
10.4400,3.782
10.4800,3.759
10.5200,3.625
10.5600,3.676
10.6000,3.663
10.6400,3.679
10.6800,3.807
10.7200,3.721
10.7600,3.655
10.8000,3.597
10.8400,3.615
10.8800,3.547
10.9200,3.603
10.9600,3.638
11.0000,3.681
11.0400,3.530
11.0800,3.587
11.1200,3.608
11.1600,3.607
11.2000,3.518
11.2400,3.561
11.2800,3.572
11.3200,3.596
11.3600,3.520
11.4000,3.606
11.4400,3.585
11.4800,3.506
11.5200,3.541
11.5600,3.549
11.6000,3.531
11.6400,3.521
11.6800,3.628
11.7200,3.605
11.7600,3.555
11.8000,3.473
11.8400,3.509
11.8800,3.503
11.9200,3.545
11.9600,3.516
12.0000,3.576
12.0400,3.413
12.0800,3.583
12.1200,3.505
12.1600,3.437
12.2000,3.459
12.2400,3.390
12.2800,3.399
12.3200,3.495
12.3600,3.546
12.4000,3.447
12.4400,3.401
12.4800,3.484
12.5200,3.480
12.5600,3.378
12.6000,3.344
12.6400,3.469
12.6800,3.406
12.7200,3.327
12.7600,3.356
12.8000,3.401
12.8400,3.413
12.8800,3.460
12.9200,3.448
12.9600,3.463
13.0000,3.490
13.0400,3.401
13.0800,3.386
13.1200,3.350
13.1600,3.508
13.2000,3.347
13.2400,3.325
13.2800,3.382
13.3200,3.331
13.3600,3.377
13.4000,3.324
13.4400,3.519
13.4800,3.429
13.5200,3.331
13.5600,3.231
13.6000,3.267
13.6400,3.340
13.6800,3.384
13.7200,3.384
13.7600,3.198
13.8000,3.382
13.8400,3.358
13.8800,3.301
13.9200,3.312
13.9600,3.346
14.0000,3.301
14.0400,3.332
14.0800,3.349
14.1200,3.277
14.1600,3.272
14.2000,3.427
14.2400,3.291
14.2800,3.245
14.3200,3.274
14.3600,3.281
14.4000,3.285
14.4400,3.282
14.4800,3.229
14.5200,3.249
14.5600,3.173
14.6000,3.312
14.6400,3.228
14.6800,3.187
14.7200,3.281
14.7600,3.283
14.8000,3.149
14.8400,3.163
14.8800,3.190
14.9200,3.171
14.9600,3.237
15.0000,3.244
15.0400,3.120
15.0800,3.235
15.1200,3.204
15.1600,3.252
15.2000,3.259
15.2400,3.107
15.2800,3.136
15.3200,3.194
15.3600,3.170
15.4000,3.204
15.4400,3.193
15.4800,3.159
15.5200,3.153
15.5600,3.051
15.6000,3.173
15.6400,3.086
15.6800,3.118
15.7200,3.169
15.7600,3.154
15.8000,3.130
15.8400,3.136
15.8800,3.086
15.9200,3.398
15.9600,3.127
16.0000,3.091
16.0400,3.186
16.0800,3.133
16.1200,3.106
16.1600,3.116
16.2000,3.099
16.2400,3.205
16.2800,3.184
16.3200,3.050
16.3600,2.955
16.4000,3.059
16.4400,3.001
16.4800,3.057
16.5200,3.033
16.5600,3.073
16.6000,3.031
16.6400,3.233
16.6800,3.021
16.7200,3.022
16.7600,2.995
16.8000,3.038
16.8400,3.031
16.8800,2.994
16.9200,2.997
16.9600,3.006
17.0000,3.031
17.0400,2.941
17.0800,3.069
17.1200,2.960
17.1600,3.048
17.2000,2.937
17.2400,3.034
17.2800,2.967
17.3200,2.982
17.3600,2.978
17.4000,2.991
17.4400,3.005
17.4800,2.934
17.5200,2.963
17.5600,2.944
17.6000,2.991
17.6400,3.006
17.6800,2.904
17.7200,2.913
17.7600,3.049
17.8000,2.991
17.8400,2.969
17.8800,2.976
17.9200,3.004
17.9600,2.884
18.0000,2.922
18.0400,2.887
18.0800,3.003
18.1200,2.838
18.1600,2.899
18.2000,2.908
18.2400,2.919
18.2800,2.912
18.3200,2.867
18.3600,2.823
18.4000,2.803
18.4400,2.823
18.4800,2.786
18.5200,2.862
18.5600,2.855
18.6000,2.857
18.6400,2.885
18.6800,2.895
18.7200,2.840
18.7600,2.837
18.8000,2.784
18.8400,2.863
18.8800,2.833
18.9200,2.749
18.9600,2.750
19.0000,2.799
19.0400,2.830
19.0800,2.840
19.1200,2.857
19.1600,2.801
19.2000,2.789
19.2400,2.722
19.2800,2.769
19.3200,2.822
19.3600,2.791
19.4000,2.689
19.4400,2.768
19.4800,2.715
19.5200,2.830
19.5600,2.782
19.6000,2.748
19.6400,2.747
19.6800,2.705
19.7200,2.787
19.7600,2.824
19.8000,2.736
19.8400,2.697
19.8800,2.775
19.9200,2.840
19.9600,2.848
20.0000,2.702
20.0400,2.638
20.0800,2.807
20.1200,2.743
20.1600,2.850
20.2000,2.799
20.2400,2.791
20.2800,2.735
20.3200,2.631
20.3600,2.738
20.4000,2.655
20.4400,2.684
20.4800,2.694
20.5200,2.663
20.5600,2.711
20.6000,2.627
20.6400,2.651
20.6800,2.770
20.7200,2.649
20.7600,2.679
20.8000,2.711
20.8400,2.686
20.8800,2.636
20.9200,2.696
20.9600,2.620
21.0000,2.692
21.0400,2.723
21.0800,2.620
21.1200,2.681
21.1600,2.699
21.2000,2.736
21.2400,2.701
21.2800,2.788
21.3200,2.700
21.3600,2.850
21.4000,3.083
21.4400,3.375
21.4800,3.488
21.5200,3.305
21.5600,3.176
21.6000,2.918
21.6400,2.747
21.6800,2.750
21.7200,2.722
21.7600,2.657
21.8000,2.579
21.8400,2.613
21.8800,2.564
21.9200,2.579
21.9600,2.592
22.0000,2.698
22.0400,2.686
22.0800,2.656
22.1200,2.550
22.1600,2.499
22.2000,2.567
22.2400,2.551
22.2800,2.589
22.3200,2.588
22.3600,2.494
22.4000,2.539
22.4400,2.500
22.4800,2.532
22.5200,2.517
22.5600,2.539
22.6000,2.503
22.6400,2.447
22.6800,2.355
22.7200,2.493
22.7600,2.572
22.8000,2.464
22.8400,2.424
22.8800,2.486
22.9200,2.602
22.9600,2.412
23.0000,2.432
23.0400,2.455
23.0800,2.457
23.1200,2.456
23.1600,2.503
23.2000,2.468
23.2400,2.466
23.2800,2.451
23.3200,2.399
23.3600,2.467
23.4000,2.465
23.4400,2.361
23.4800,2.500
23.5200,2.493
23.5600,2.451
23.6000,2.443
23.6400,2.387
23.6800,2.365
23.7200,2.417
23.7600,2.337
23.8000,2.418
23.8400,2.401
23.8800,2.424
23.9200,2.392
23.9600,2.393
24.0000,2.464
24.0400,2.326
24.0800,2.320
24.1200,2.387
24.1600,2.447
24.2000,2.321
24.2400,2.393
24.2800,2.383
24.3200,2.335
24.3600,2.377
24.4000,2.334
24.4400,2.338
24.4800,2.326
24.5200,2.298
24.5600,2.379
24.6000,2.349
24.6400,2.350
24.6800,2.364
24.7200,2.328
24.7600,2.253
24.8000,2.381
24.8400,2.326
24.8800,2.381
24.9200,2.301
24.9600,2.257
25.0000,2.313
25.0400,2.343
25.0800,2.295
25.1200,2.326
25.1600,2.191
25.2000,2.180
25.2400,2.273
25.2800,2.325
25.3200,2.356
25.3600,2.234
25.4000,2.260
25.4400,2.274
25.4800,2.301
25.5200,2.253
25.5600,2.276
25.6000,2.309
25.6400,2.244
25.6800,2.252
25.7200,2.221
25.7600,2.261
25.8000,2.240
25.8400,2.205
25.8800,2.221
25.9200,2.224
25.9600,2.200
26.0000,2.145
26.0400,2.169
26.0800,2.215
26.1200,2.220
26.1600,2.228
26.2000,2.182
26.2400,2.268
26.2800,2.229
26.3200,2.220
26.3600,2.153
26.4000,2.185
26.4400,2.205
26.4800,2.240
26.5200,2.177
26.5600,2.175
26.6000,2.203
26.6400,2.169
26.6800,2.154
26.7200,2.137
26.7600,2.078
26.8000,2.144
26.8400,2.078
26.8800,2.085
26.9200,2.151
26.9600,2.153
27.0000,2.043
27.0400,2.100
27.0800,2.117
27.1200,2.103
27.1600,2.058
27.2000,2.144
27.2400,2.171
27.2800,2.192
27.3200,2.078
27.3600,2.164
27.4000,2.089
27.4400,2.163
27.4800,2.093
27.5200,2.106
27.5600,2.126
27.6000,2.087
27.6400,2.107
27.6800,2.115
27.7200,2.103
27.7600,2.094
27.8000,2.030
27.8400,2.089
27.8800,2.005
27.9200,2.068
27.9600,2.113
28.0000,2.009
28.0400,2.073
28.0800,2.078
28.1200,2.039
28.1600,2.053
28.2000,2.024
28.2400,2.107
28.2800,2.069
28.3200,2.019
28.3600,2.107
28.4000,2.129
28.4400,1.969
28.4800,2.064
28.5200,1.987
28.5600,2.111
28.6000,2.105
28.6400,2.000
28.6800,2.077
28.7200,2.071
28.7600,2.115
28.8000,2.046
28.8400,2.054
28.8800,2.027
28.9200,1.959
28.9600,2.070
29.0000,2.060
29.0400,2.110
29.0800,2.115
29.1200,2.084
29.1600,2.018
29.2000,2.022
29.2400,2.036
29.2800,2.038
29.3200,2.000
29.3600,2.110
29.4000,2.061
29.4400,2.063
29.4800,1.962
29.5200,2.064
29.5600,2.042
29.6000,2.011
29.6400,2.068
29.6800,2.001
29.7200,2.049
29.7600,2.080
29.8000,2.125
29.8400,2.052
29.8800,2.189
29.9200,2.141
29.9600,2.117
30.0000,2.130
30.0400,2.187
30.0800,2.100
30.1200,2.199
30.1600,2.246
30.2000,2.351
30.2400,2.360
30.2800,2.493
30.3200,2.641
30.3600,2.846
30.4000,3.185
30.4400,3.764
30.4800,5.007
30.5200,7.042
30.5600,8.278
30.6000,7.969
30.6400,6.617
30.6800,5.159
30.7200,3.950
30.7600,3.317
30.8000,2.959
30.8400,2.717
30.8800,2.552
30.9200,2.414
30.9600,2.390
31.0000,2.309
31.0400,2.382
31.0800,2.304
31.1200,2.267
31.1600,2.275
31.2000,2.359
31.2400,2.221
31.2800,2.346
31.3200,2.303
31.3600,2.368
31.4000,2.424
31.4400,2.359
31.4800,2.415
31.5200,2.469
31.5600,2.414
31.6000,2.441
31.6400,2.623
31.6800,2.687
31.7200,2.744
31.7600,2.753
31.8000,2.779
31.8400,2.771
31.8800,2.581
31.9200,2.591
31.9600,2.620
32.0000,2.433
32.0400,2.449
32.0800,2.402
32.1200,2.376
32.1600,2.340
32.2000,2.276
32.2400,2.193
32.2800,2.198
32.3200,2.158
32.3600,2.257
32.4000,2.181
32.4400,2.175
32.4800,2.203
32.5200,2.167
32.5600,2.200
32.6000,2.183
32.6400,2.143
32.6800,2.390
32.7200,2.511
32.7600,2.575
32.8000,2.980
32.8400,5.359
32.8800,11.303
32.9200,12.389
32.9600,9.384
33.0000,9.157
33.0400,6.139
33.0800,3.289
33.1200,2.507
33.1600,2.286
33.2000,2.218
33.2400,2.125
33.2800,2.119
33.3200,2.084
33.3600,2.085
33.4000,2.062
33.4400,2.028
33.4800,1.975
33.5200,2.049
33.5600,2.125
33.6000,2.069
33.6400,2.037
33.6800,2.014
33.7200,2.038
33.7600,2.033
33.8000,1.995
33.8400,2.035
33.8800,1.975
33.9200,2.062
33.9600,2.090
34.0000,2.112
34.0400,2.113
34.0800,2.150
34.1200,2.176
34.1600,2.179
34.2000,2.267
34.2400,2.180
34.2800,2.233
34.3200,2.255
34.3600,2.309
34.4000,2.366
34.4400,2.384
34.4800,2.225
34.5200,2.325
34.5600,2.249
34.6000,2.309
34.6400,2.166
34.6800,2.182
34.7200,2.142
34.7600,2.082
34.8000,1.991
34.8400,2.127
34.8800,2.019
34.9200,2.008
34.9600,2.035
35.0000,1.966
35.0400,1.982
35.0800,2.034
35.1200,1.981
35.1600,2.139
35.2000,2.098
35.2400,2.230
35.2800,2.175
35.3200,2.473
35.3600,2.722
35.4000,3.204
35.4400,3.516
35.4800,3.485
35.5200,3.219
35.5600,2.879
35.6000,2.579
35.6400,2.460
35.6800,2.358
35.7200,2.240
35.7600,2.224
35.8000,2.204
35.8400,2.243
35.8800,2.324
35.9200,2.352
35.9600,2.325
36.0000,2.274
36.0400,2.445
36.0800,2.474
36.1200,2.608
36.1600,2.658
36.2000,2.946
36.2400,3.698
36.2800,4.291
36.3200,3.912
36.3600,3.635
36.4000,3.130
36.4400,2.671
36.4800,2.370
36.5200,2.191
36.5600,2.156
36.6000,2.106
36.6400,1.956
36.6800,2.001
36.7200,1.896
36.7600,1.875
36.8000,1.828
36.8400,1.753
36.8800,1.767
36.9200,1.766
36.9600,1.755
37.0000,1.654
37.0400,1.659
37.0800,1.633
37.1200,1.649
37.1600,1.689
37.2000,1.676
37.2400,1.649
37.2800,1.650
37.3200,1.540
37.3600,1.640
37.4000,1.656
37.4400,1.643
37.4800,1.544
37.5200,1.570
37.5600,1.586
37.6000,1.629
37.6400,1.738
37.6800,1.832
37.7200,1.713
37.7600,1.667
37.8000,1.586
37.8400,1.556
37.8800,1.559
37.9200,1.531
37.9600,1.546
38.0000,1.474
38.0400,1.452
38.0800,1.444
38.1200,1.406
38.1600,1.409
38.2000,1.372
38.2400,1.425
38.2800,1.453
38.3200,1.375
38.3600,1.420
38.4000,1.403
38.4400,1.352
38.4800,1.419
38.5200,1.400
38.5600,1.335
38.6000,1.420
38.6400,1.402
38.6800,1.402
38.7200,1.432
38.7600,1.426
38.8000,1.380
38.8400,1.465
38.8800,1.472
38.9200,1.520
38.9600,1.665
39.0000,1.824
39.0400,2.424
39.0800,3.513
39.1200,3.536
39.1600,2.824
39.2000,2.614
39.2400,2.235
39.2800,1.619
39.3200,1.493
39.3600,1.459
39.4000,1.363
39.4400,1.291
39.4800,1.326
39.5200,1.370
39.5600,1.327
39.6000,1.313
39.6400,1.292
39.6800,1.310
39.7200,1.315
39.7600,1.378
39.8000,1.352
39.8400,1.364
39.8800,1.304
39.9200,1.283
39.9600,1.249
40.0000,1.264
40.0400,1.220
40.0800,1.239
40.1200,1.250
40.1600,1.212
40.2000,1.222
40.2400,1.198
40.2800,1.251
40.3200,1.240
40.3600,1.279
40.4000,1.247
40.4400,1.211
40.4800,1.180
40.5200,1.184
40.5600,1.221
40.6000,1.194
40.6400,1.215
40.6800,1.227
40.7200,1.250
40.7600,1.211
40.8000,1.169
40.8400,1.177
40.8800,1.204
40.9200,1.156
40.9600,1.141
41.0000,1.196
41.0400,1.203
41.0800,1.219
41.1200,1.228
41.1600,1.179
41.2000,1.156
41.2400,1.158
41.2800,1.155
41.3200,1.201
41.3600,1.177
41.4000,1.163
41.4400,1.152
41.4800,1.180
41.5200,1.197
41.5600,1.152
41.6000,1.145
41.6400,1.211
41.6800,1.192
41.7200,1.250
41.7600,1.259
41.8000,1.372
41.8400,1.395
41.8800,1.264
41.9200,1.290
41.9600,1.297
42.0000,1.217
42.0400,1.201
42.0800,1.164
42.1200,1.169
42.1600,1.158
42.2000,1.139
42.2400,1.158
42.2800,1.155
42.3200,1.163
42.3600,1.107
42.4000,1.125
42.4400,1.135
42.4800,1.080
42.5200,1.079
42.5600,1.118
42.6000,1.108
42.6400,1.089
42.6800,1.057
42.7200,1.087
42.7600,1.101
42.8000,1.113
42.8400,1.053
42.8800,1.091
42.9200,1.087
42.9600,1.102
43.0000,1.079
43.0400,1.146
43.0800,1.111
43.1200,1.157
43.1600,1.409
43.2000,1.586
43.2400,1.434
43.2800,1.381
43.3200,1.280
43.3600,1.174
43.4000,1.119
43.4400,1.049
43.4800,1.018
43.5200,1.071
43.5600,1.021
43.6000,1.088
43.6400,1.074
43.6800,1.097
43.7200,1.100
43.7600,1.141
43.8000,1.076
43.8400,1.073
43.8800,1.063
43.9200,1.090
43.9600,1.011
44.0000,1.010
44.0400,1.084
44.0800,1.031
44.1200,1.048
44.1600,1.097
44.2000,1.054
44.2400,1.019
44.2800,1.004
44.3200,1.007
44.3600,1.063
44.4000,1.069
44.4400,1.026
44.4800,0.989
44.5200,0.981
44.5600,1.000
44.6000,0.989
44.6400,0.967
44.6800,0.986
44.7200,1.033
44.7600,1.042
44.8000,1.044
44.8400,0.987
44.8800,1.000
44.9200,0.994
44.9600,0.967
45.0000,1.023
45.0400,1.012
45.0800,0.990
45.1200,1.007
45.1600,1.009
45.2000,1.029
45.2400,0.981
45.2800,1.044
45.3200,0.975
45.3600,1.021
45.4000,1.017
45.4400,1.048
45.4800,1.076
45.5200,1.139
45.5600,1.160
45.6000,1.205
45.6400,1.302
45.6800,1.313
45.7200,1.260
45.7600,1.243
45.8000,1.180
45.8400,1.152
45.8800,1.090
45.9200,1.064
45.9600,0.993
46.0000,0.973
46.0400,0.992
46.0800,1.003
46.1200,0.961
46.1600,0.994
46.2000,0.991
46.2400,0.968
46.2800,0.938
46.3200,0.899
46.3600,0.977
46.4000,0.973
46.4400,0.949
46.4800,0.997
46.5200,0.964
46.5600,0.957
46.6000,0.943
46.6400,0.999
46.6800,0.992
46.7200,0.990
46.7600,0.921
46.8000,1.008
46.8400,1.016
46.8800,0.983
46.9200,0.954
46.9600,0.964
47.0000,0.984
47.0400,0.980
47.0800,0.958
47.1200,0.999
47.1600,0.994
47.2000,0.944
47.2400,1.004
47.2800,1.002
47.3200,1.023
47.3600,1.000
47.4000,1.016
47.4400,0.984
47.4800,1.029
47.5200,0.997
47.5600,0.980
47.6000,0.985
47.6400,1.014
47.6800,0.993
47.7200,0.965
47.7600,1.004
47.8000,0.924
47.8400,0.934
47.8800,0.953
47.9200,0.963
47.9600,0.972
48.0000,0.935
48.0400,0.917
48.0800,0.982
48.1200,1.006
48.1600,0.866
48.2000,0.934
48.2400,0.944
48.2800,0.850
48.3200,0.907
48.3600,0.869
48.4000,0.890
48.4400,0.935
48.4800,0.930
48.5200,0.893
48.5600,0.882
48.6000,0.914
48.6400,0.884
48.6800,0.915
48.7200,0.901
48.7600,0.904
48.8000,0.896
48.8400,0.908
48.8800,0.890
48.9200,0.892
48.9600,0.875
49.0000,0.931
49.0400,0.899
49.0800,0.936
49.1200,0.910
49.1600,0.918
49.2000,0.955
49.2400,0.982
49.2800,0.965
49.3200,0.954
49.3600,0.956
49.4000,0.879
49.4400,0.869
49.4800,0.884
49.5200,0.836
49.5600,0.913
49.6000,0.847
49.6400,0.827
49.6800,0.859
49.7200,0.847
49.7600,0.794
49.8000,0.878
49.8400,0.931
49.8800,0.872
49.9200,0.844
49.9600,0.847
50.0000,0.870
50.0400,0.868
50.0800,0.791
50.1200,0.771
50.1600,0.889
50.2000,0.884
50.2400,0.842
50.2800,0.838
50.3200,0.820
50.3600,0.895
50.4000,0.853
50.4400,0.852
50.4800,0.853
50.5200,0.882
50.5600,0.870
50.6000,0.894
50.6400,0.905
50.6800,0.938
50.7200,0.918
50.7600,1.000
50.8000,1.090
50.8400,1.142
50.8800,1.309
50.9200,1.523
50.9600,1.973
51.0000,2.081
51.0400,1.923
51.0800,1.724
51.1200,1.697
51.1600,1.564
51.2000,1.389
51.2400,1.179
51.2800,1.027
51.3200,1.056
51.3600,0.951
51.4000,0.917
51.4400,0.889
51.4800,0.882
51.5200,0.887
51.5600,0.854
51.6000,0.873
51.6400,0.812
51.6800,0.824
51.7200,0.840
51.7600,0.790
51.8000,0.815
51.8400,0.790
51.8800,0.785
51.9200,0.786
51.9600,0.829
52.0000,0.818
52.0400,0.827
52.0800,0.790
52.1200,0.816
52.1600,0.779
52.2000,0.763
52.2400,0.809
52.2800,0.752
52.3200,0.791
52.3600,0.802
52.4000,0.757
52.4400,0.756
52.4800,0.751
52.5200,0.793
52.5600,0.761
52.6000,0.790
52.6400,0.857
52.6800,0.848
52.7200,0.817
52.7600,0.864
52.8000,0.879
52.8400,0.746
52.8800,0.800
52.9200,0.757
52.9600,0.785
53.0000,0.750
53.0400,0.755
53.0800,0.767
53.1200,0.784
53.1600,0.740
53.2000,0.760
53.2400,0.748
53.2800,0.791
53.3200,0.765
53.3600,0.738
53.4000,0.783
53.4400,0.765
53.4800,0.750
53.5200,0.775
53.5600,0.834
53.6000,0.763
53.6400,0.772
53.6800,0.711
53.7200,0.713
53.7600,0.754
53.8000,0.781
53.8400,0.767
53.8800,0.739
53.9200,0.760
53.9600,0.755
54.0000,0.779
54.0400,0.829
54.0800,0.771
54.1200,0.731
54.1600,0.761
54.2000,0.786
54.2400,0.779
54.2800,0.861
54.3200,0.933
54.3600,1.263
54.4000,1.651
54.4400,1.451
54.4800,1.139
54.5200,1.230
54.5600,1.271
54.6000,1.026
54.6400,0.840
54.6800,0.860
54.7200,0.765
54.7600,0.750
54.8000,0.778
54.8400,0.781
54.8800,0.833
54.9200,0.737
54.9600,0.737
55.0000,0.771
55.0400,0.734
55.0800,0.735
55.1200,0.773
55.1600,0.744
55.2000,0.770
55.2400,0.767
55.2800,0.776
55.3200,0.764
55.3600,0.754
55.4000,0.747
55.4400,0.747
55.4800,0.759
55.5200,0.744
55.5600,0.770
55.6000,0.816
55.6400,0.770
55.6800,0.802
55.7200,0.725
55.7600,0.801
55.8000,0.826
55.8400,0.890
55.8800,0.868
55.9200,0.945
55.9600,0.912
56.0000,0.932
56.0400,0.927
56.0800,0.929
56.1200,0.876
56.1600,0.838
56.2000,0.888
56.2400,0.921
56.2800,0.926
56.3200,0.908
56.3600,0.881
56.4000,0.937
56.4400,1.032
56.4800,1.215
56.5200,1.256
56.5600,1.133
56.6000,1.081
56.6400,1.171
56.6800,1.092
56.7200,0.986
56.7600,0.949
56.8000,0.887
56.8400,0.873
56.8800,0.849
56.9200,0.866
56.9600,0.854
57.0000,0.817
57.0400,0.808
57.0800,0.798
57.1200,0.842
57.1600,0.783
57.2000,0.774
57.2400,0.811
57.2800,0.738
57.3200,0.750
57.3600,0.722
57.4000,0.734
57.4400,0.742
57.4800,0.766
57.5200,0.721
57.5600,0.702
57.6000,0.734
57.6400,0.746
57.6800,0.752
57.7200,0.704
57.7600,0.707
57.8000,0.707
57.8400,0.697
57.8800,0.659
57.9200,0.694
57.9600,0.703
58.0000,0.661
58.0400,0.714
58.0800,0.694
58.1200,0.697
58.1600,0.686
58.2000,0.688
58.2400,0.687
58.2800,0.662
58.3200,0.699
58.3600,0.680
58.4000,0.627
58.4400,0.687
58.4800,0.740
58.5200,0.652
58.5600,0.673
58.6000,0.668
58.6400,0.681
58.6800,0.626
58.7200,0.672
58.7600,0.680
58.8000,0.647
58.8400,0.689
58.8800,0.721
58.9200,0.707
58.9600,0.694
59.0000,0.707
59.0400,0.750
59.0800,0.751
59.1200,0.777
59.1600,0.780
59.2000,0.753
59.2400,0.719
59.2800,0.687
59.3200,0.670
59.3600,0.701
59.4000,0.689
59.4400,0.683
59.4800,0.610
59.5200,0.647
59.5600,0.680
59.6000,0.672
59.6400,0.635
59.6800,0.668
59.7200,0.640
59.7600,0.652
59.8000,0.630
59.8400,0.628
59.8800,0.622
59.9200,0.624
59.9600,0.676
60.0000,0.656
60.0400,0.668
60.0800,0.657
60.1200,0.635
60.1600,0.648
60.2000,0.648
60.2400,0.726
60.2800,0.642
60.3200,0.675
60.3600,0.679
60.4000,0.744
60.4400,0.794
60.4800,0.860
60.5200,0.913
60.5600,0.999
60.6000,1.214
60.6400,1.425
60.6800,1.264
60.7200,1.059
60.7600,1.111
60.8000,1.092
60.8400,1.006
60.8800,0.913
60.9200,0.810
60.9600,0.750
61.0000,0.756
61.0400,0.724
61.0800,0.726
61.1200,0.738
61.1600,0.658
61.2000,0.706
61.2400,0.669
61.2800,0.660
61.3200,0.627
61.3600,0.641
61.4000,0.649
61.4400,0.620
61.4800,0.635
61.5200,0.645
61.5600,0.686
61.6000,0.729
61.6400,0.751
61.6800,0.704
61.7200,0.635
61.7600,0.633
61.8000,0.672
61.8400,0.629
61.8800,0.631
61.9200,0.611
61.9600,0.730
62.0000,0.718
62.0400,0.701
62.0800,0.750
62.1200,0.781
62.1600,0.768
62.2000,0.740
62.2400,0.746
62.2800,0.732
62.3200,0.740
62.3600,0.771
62.4000,0.714
62.4400,0.739
62.4800,0.720
62.5200,0.656
62.5600,0.709
62.6000,0.706
62.6400,0.725
62.6800,0.691
62.7200,0.675
62.7600,0.678
62.8000,0.687
62.8400,0.652
62.8800,0.720
62.9200,0.719
62.9600,0.721
63.0000,0.677
63.0400,0.757
63.0800,0.808
63.1200,0.961
63.1600,1.046
63.2000,1.032
63.2400,0.873
63.2800,0.813
63.3200,0.871
63.3600,0.809
63.4000,0.784
63.4400,0.706
63.4800,0.722
63.5200,0.711
63.5600,0.697
63.6000,0.741
63.6400,0.774
63.6800,0.772
63.7200,0.718
63.7600,0.744
63.8000,0.718
63.8400,0.731
63.8800,0.679
63.9200,0.686
63.9600,0.642
64.0000,0.626
64.0400,0.698
64.0800,0.635
64.1200,0.626
64.1600,0.648
64.2000,0.619
64.2400,0.603
64.2800,0.630
64.3200,0.604
64.3600,0.646
64.4000,0.612
64.4400,0.646
64.4800,0.631
64.5200,0.648
64.5600,0.625
64.6000,0.626
64.6400,0.631
64.6800,0.679
64.7200,0.635
64.7600,0.580
64.8000,0.603
64.8400,0.597
64.8800,0.633
64.9200,0.676
64.9600,0.690
65.0000,0.661
65.0400,0.654
65.0800,0.669
65.1200,0.694
65.1600,0.725
65.2000,0.624
65.2400,0.728
65.2800,0.678
65.3200,0.734
65.3600,0.697
65.4000,0.730
65.4400,0.717
65.4800,0.704
65.5200,0.673
65.5600,0.684
65.6000,0.701
65.6400,0.741
65.6800,0.728
65.7200,0.690
65.7600,0.697
65.8000,0.741
65.8400,0.760
65.8800,0.755
65.9200,0.765
65.9600,0.712
66.0000,0.751
66.0400,0.783
66.0800,0.769
66.1200,0.808
66.1600,0.776
66.2000,0.787
66.2400,0.785
66.2800,0.824
66.3200,0.849
66.3600,0.807
66.4000,0.861
66.4400,0.822
66.4800,0.939
66.5200,0.881
66.5600,0.924
66.6000,0.990
66.6400,1.004
66.6800,0.969
66.7200,0.989
66.7600,0.993
66.8000,0.976
66.8400,1.078
66.8800,1.146
66.9200,1.319
66.9600,1.501
67.0000,1.444
67.0400,1.226
67.0800,1.202
67.1200,1.370
67.1600,1.367
67.2000,1.290
67.2400,1.223
67.2800,1.262
67.3200,1.199
67.3600,1.183
67.4000,1.215
67.4400,1.343
67.4800,1.226
67.5200,1.304
67.5600,1.370
67.6000,1.405
67.6400,1.376
67.6800,1.535
67.7200,1.523
67.7600,1.509
67.8000,1.624
67.8400,1.612
67.8800,1.567
67.9200,1.700
67.9600,1.711
68.0000,1.718
68.0400,1.753
68.0800,1.877
68.1200,1.928
68.1600,1.889
68.2000,1.955
68.2400,2.004
68.2800,2.052
68.3200,2.111
68.3600,2.204
68.4000,2.292
68.4400,2.378
68.4800,2.534
68.5200,2.579
68.5600,2.812
68.6000,2.846
68.6400,3.216
68.6800,3.865
68.7200,5.057
68.7600,6.457
68.8000,7.048
68.8400,7.290
68.8800,7.446
68.9200,9.023
68.9600,12.645
69.0000,21.826
69.0400,60.714
69.0800,296.624
69.1200,506.091
69.1600,275.916
69.2000,67.495
69.2400,54.835
69.2800,170.399
69.3200,257.050
69.3600,133.520
69.4000,33.356
69.4400,14.121
69.4800,9.436
69.5200,7.289
69.5600,5.960
69.6000,4.986
69.6400,4.488
69.6800,4.065
69.7200,3.572
69.7600,3.332
69.8000,2.987
69.8400,2.893
69.8800,2.616
69.9200,2.501
69.9600,2.437
70.0000,2.384
70.0400,2.303
70.0800,2.235
70.1200,2.106
70.1600,2.121
70.2000,1.998
70.2400,1.899
70.2800,1.905
70.3200,1.736
70.3600,1.727
70.4000,1.685
70.4400,1.624
70.4800,1.662
70.5200,1.590
70.5600,1.465
70.6000,1.491
70.6400,1.414
70.6800,1.330
70.7200,1.353
70.7600,1.289
70.8000,1.321
70.8400,1.234
70.8800,1.223
70.9200,1.151
70.9600,1.096
71.0000,1.141
71.0400,1.088
71.0800,1.064
71.1200,1.079
71.1600,1.036
71.2000,0.998
71.2400,0.969
71.2800,0.952
71.3200,0.910
71.3600,0.925
71.4000,0.866
71.4400,0.868
71.4800,0.866
71.5200,0.812
71.5600,0.884
71.6000,0.854
71.6400,0.821
71.6800,0.767
71.7200,0.819
71.7600,0.761
71.8000,0.726
71.8400,0.699
71.8800,0.726
71.9200,0.697
71.9600,0.666
72.0000,0.706
72.0400,0.717
72.0800,0.696
72.1200,0.636
72.1600,0.653
72.2000,0.645
72.2400,0.633
72.2800,0.685
72.3200,0.619
72.3600,0.605
72.4000,0.615
72.4400,0.596
72.4800,0.594
72.5200,0.577
72.5600,0.579
72.6000,0.598
72.6400,0.562
72.6800,0.561
72.7200,0.516
72.7600,0.518
72.8000,0.555
72.8400,0.535
72.8800,0.564
72.9200,0.547
72.9600,0.557
73.0000,0.528
73.0400,0.494
73.0800,0.500
73.1200,0.500
73.1600,0.487
73.2000,0.522
73.2400,0.502
73.2800,0.464
73.3200,0.470
73.3600,0.487
73.4000,0.500
73.4400,0.494
73.4800,0.489
73.5200,0.485
73.5600,0.454
73.6000,0.462
73.6400,0.499
73.6800,0.503
73.7200,0.465
73.7600,0.481
73.8000,0.473
73.8400,0.461
73.8800,0.510
73.9200,0.465
73.9600,0.428
74.0000,0.426
74.0400,0.456
74.0800,0.432
74.1200,0.430
74.1600,0.446
74.2000,0.454
74.2400,0.465
74.2800,0.457
74.3200,0.403
74.3600,0.382
74.4000,0.408
74.4400,0.410
74.4800,0.409
74.5200,0.432
74.5600,0.414
74.6000,0.404
74.6400,0.391
74.6800,0.418
74.7200,0.400
74.7600,0.413
74.8000,0.397
74.8400,0.392
74.8800,0.438
74.9200,0.424
74.9600,0.412
75.0000,0.458
75.0400,0.473
75.0800,0.448
75.1200,0.418
75.1600,0.403
75.2000,0.430
75.2400,0.445
75.2800,0.413
75.3200,0.422
75.3600,0.440
75.4000,0.393
75.4400,0.384
75.4800,0.406
75.5200,0.411
75.5600,0.383
75.6000,0.405
75.6400,0.335
75.6800,0.355
75.7200,0.362
75.7600,0.390
75.8000,0.370
75.8400,0.375
75.8800,0.400
75.9200,0.381
75.9600,0.382
76.0000,0.387
76.0400,0.401
76.0800,0.374
76.1200,0.403
76.1600,0.365
76.2000,0.353
76.2400,0.370
76.2800,0.380
76.3200,0.399
76.3600,0.405
76.4000,0.405
76.4400,0.416
76.4800,0.396
76.5200,0.392
76.5600,0.401
76.6000,0.390
76.6400,0.386
76.6800,0.371
76.7200,0.391
76.7600,0.358
76.8000,0.362
76.8400,0.367
76.8800,0.362
76.9200,0.363
76.9600,0.366
77.0000,0.373
77.0400,0.384
77.0800,0.362
77.1200,0.356
77.1600,0.392
77.2000,0.365
77.2400,0.351
77.2800,0.369
77.3200,0.344
77.3600,0.348
77.4000,0.369
77.4400,0.365
77.4800,0.356
77.5200,0.329
77.5600,0.376
77.6000,0.315
77.6400,0.305
77.6800,0.353
77.7200,0.337
77.7600,0.328
77.8000,0.381
77.8400,0.360
77.8800,0.344
77.9200,0.337
77.9600,0.378
78.0000,0.314
78.0400,0.361
78.0800,0.331
78.1200,0.318
78.1600,0.349
78.2000,0.320
78.2400,0.333
78.2800,0.301
78.3200,0.292
78.3600,0.300
78.4000,0.293
78.4400,0.341
78.4800,0.315
78.5200,0.329
78.5600,0.299
78.6000,0.326
78.6400,0.302
78.6800,0.292
78.7200,0.292
78.7600,0.265
78.8000,0.327
78.8400,0.304
78.8800,0.308
78.9200,0.326
78.9600,0.314
79.0000,0.331
79.0400,0.350
79.0800,0.336
79.1200,0.313
79.1600,0.340
79.2000,0.342
79.2400,0.313
79.2800,0.295
79.3200,0.313
79.3600,0.334
79.4000,0.322
79.4400,0.297
79.4800,0.302
79.5200,0.315
79.5600,0.331
79.6000,0.333
79.6400,0.308
79.6800,0.297
79.7200,0.292
79.7600,0.323
79.8000,0.286
79.8400,0.304
79.8800,0.309
79.9200,0.301
79.9600,0.291
80.0000,0.289
