theta,intensity
5.0000,4.750
5.0400,4.566
5.0800,4.543
5.1200,4.631
5.1600,4.519
5.2000,4.597
5.2400,4.503
5.2800,4.534
5.3200,4.515
5.3600,4.541
5.4000,4.444
5.4400,4.310
5.4800,4.266
5.5200,4.251
5.5600,4.137
5.6000,4.144
5.6400,4.211
5.6800,4.179
5.7200,4.124
5.7600,4.112
5.8000,4.165
5.8400,4.098
5.8800,4.053
5.9200,4.023
5.9600,4.049
6.0000,4.145
6.0400,4.178
6.0800,4.107
6.1200,4.036
6.1600,4.055
6.2000,3.988
6.2400,4.061
6.2800,4.024
6.3200,3.934
6.3600,3.987
6.4000,3.999
6.4400,3.859
6.4800,3.872
6.5200,3.964
6.5600,4.084
6.6000,4.028
6.6400,3.860
6.6800,3.906
6.7200,3.886
6.7600,3.973
6.8000,3.856
6.8400,3.961
6.8800,3.914
6.9200,4.013
6.9600,3.895
7.0000,3.945
7.0400,3.958
7.0800,3.890
7.1200,3.892
7.1600,3.836
7.2000,3.945
7.2400,3.952
7.2800,3.870
7.3200,3.857
7.3600,3.893
7.4000,3.854
7.4400,3.889
7.4800,3.873
7.5200,3.888
7.5600,3.798
7.6000,3.848
7.6400,3.862
7.6800,3.913
7.7200,3.901
7.7600,3.912
7.8000,3.755
7.8400,3.756
7.8800,3.811
7.9200,3.670
7.9600,3.763
8.0000,3.703
8.0400,3.793
8.0800,3.794
8.1200,3.831
8.1600,3.845
8.2000,3.858
8.2400,3.769
8.2800,3.854
8.3200,3.873
8.3600,3.786
8.4000,3.837
8.4400,3.804
8.4800,3.760
8.5200,3.806
8.5600,3.763
8.6000,3.674
8.6400,3.877
8.6800,3.794
8.7200,3.752
8.7600,3.676
8.8000,3.684
8.8400,3.721
8.8800,3.622
8.9200,3.663
8.9600,3.736
9.0000,3.785
9.0400,3.673
9.0800,3.677
9.1200,3.670
9.1600,3.641
9.2000,3.637
9.2400,3.717
9.2800,3.709
9.3200,3.618
9.3600,3.652
9.4000,3.627
9.4400,3.623
9.4800,3.521
9.5200,3.606
9.5600,3.621
9.6000,3.621
9.6400,3.641
9.6800,3.563
9.7200,3.610
9.7600,3.601
9.8000,3.568
9.8400,3.686
9.8800,3.665
9.9200,3.688
9.9600,3.536
10.0000,3.590
10.0400,3.663
10.0800,3.503
10.1200,3.578
10.1600,3.627
10.2000,3.618
10.2400,3.585
10.2800,3.654
10.3200,3.577
10.3600,3.446
10.4000,3.457
10.4400,3.495
10.4800,3.522
10.5200,3.511
10.5600,3.572
10.6000,3.524
10.6400,3.484
10.6800,3.547
10.7200,3.501
10.7600,3.579
10.8000,3.427
10.8400,3.526
10.8800,3.511
10.9200,3.508
10.9600,3.494
11.0000,3.636
11.0400,3.530
11.0800,3.468
11.1200,3.453
11.1600,3.470
11.2000,3.494
11.2400,3.456
11.2800,3.538
11.3200,3.438
11.3600,3.518
11.4000,3.547
11.4400,3.503
11.4800,3.450
11.5200,3.498
11.5600,3.412
11.6000,3.480
11.6400,3.412
11.6800,3.415
11.7200,3.396
11.7600,3.453
11.8000,3.404
11.8400,3.532
11.8800,3.402
11.9200,3.536
11.9600,3.398
12.0000,3.447
12.0400,3.420
12.0800,3.428
12.1200,3.329
12.1600,3.396
12.2000,3.441
12.2400,3.409
12.2800,3.484
12.3200,3.415
12.3600,3.311
12.4000,3.292
12.4400,3.415
12.4800,3.248
12.5200,3.374
12.5600,3.210
12.6000,3.317
12.6400,3.244
12.6800,3.316
12.7200,3.349
12.7600,3.343
12.8000,3.329
12.8400,3.364
12.8800,3.332
12.9200,3.324
12.9600,3.356
13.0000,3.328
13.0400,3.272
13.0800,3.279
13.1200,3.259
13.1600,3.298
13.2000,3.343
13.2400,3.277
13.2800,3.293
13.3200,3.211
13.3600,3.303
13.4000,3.368
13.4400,3.275
13.4800,3.263
13.5200,3.227
13.5600,3.319
13.6000,3.211
13.6400,3.175
13.6800,3.245
13.7200,3.200
13.7600,3.309
13.8000,3.204
13.8400,3.380
13.8800,3.314
13.9200,3.169
13.9600,3.133
14.0000,3.228
14.0400,3.265
14.0800,3.292
14.1200,3.225
14.1600,3.221
14.2000,3.164
14.2400,3.250
14.2800,3.165
14.3200,3.205
14.3600,3.107
14.4000,3.146
14.4400,3.103
14.4800,3.135
14.5200,3.194
14.5600,3.172
14.6000,3.153
14.6400,3.114
14.6800,3.165
14.7200,3.129
14.7600,3.203
14.8000,3.138
14.8400,3.196
14.8800,3.129
14.9200,3.113
14.9600,3.134
15.0000,3.174
15.0400,3.184
15.0800,3.165
15.1200,3.085
15.1600,3.008
15.2000,3.126
15.2400,3.088
15.2800,3.095
15.3200,3.035
15.3600,2.996
15.4000,2.991
15.4400,3.070
15.4800,3.082
15.5200,2.990
15.5600,3.040
15.6000,3.094
15.6400,3.106
15.6800,3.029
15.7200,2.968
15.7600,2.929
15.8000,3.092
15.8400,3.072
15.8800,2.972
15.9200,2.989
15.9600,3.152
16.0000,3.016
16.0400,3.026
16.0800,3.177
16.1200,3.141
16.1600,2.971
16.2000,2.977
16.2400,2.961
16.2800,2.982
16.3200,3.083
16.3600,2.992
16.4000,2.939
16.4400,2.994
16.4800,2.984
16.5200,3.052
16.5600,3.058
16.6000,2.930
16.6400,2.928
16.6800,3.034
16.7200,3.010
16.7600,2.959
16.8000,2.939
16.8400,2.956
16.8800,2.953
16.9200,2.907
16.9600,2.993
17.0000,2.983
17.0400,2.883
17.0800,2.886
17.1200,2.914
17.1600,2.902
17.2000,2.908
17.2400,2.952
17.2800,2.921
17.3200,2.983
17.3600,2.910
17.4000,2.924
17.4400,2.927
17.4800,2.915
17.5200,2.943
17.5600,2.857
17.6000,2.981
17.6400,2.934
17.6800,2.849
17.7200,2.871
17.7600,2.890
17.8000,2.888
17.8400,2.943
17.8800,2.852
17.9200,2.794
17.9600,2.797
18.0000,2.851
18.0400,2.847
18.0800,2.780
18.1200,2.870
18.1600,2.814
18.2000,2.823
18.2400,2.789
18.2800,2.780
18.3200,2.805
18.3600,2.763
18.4000,2.823
18.4400,2.819
18.4800,2.809
18.5200,2.754
18.5600,2.758
18.6000,2.821
18.6400,2.706
18.6800,2.761
18.7200,2.771
18.7600,2.774
18.8000,2.793
18.8400,2.813
18.8800,2.878
18.9200,2.806
18.9600,2.751
19.0000,2.787
19.0400,2.728
19.0800,2.652
19.1200,2.740
19.1600,2.761
19.2000,2.773
19.2400,2.830
19.2800,2.683
19.3200,2.734
19.3600,2.723
19.4000,2.680
19.4400,2.749
19.4800,2.633
19.5200,2.673
19.5600,2.763
19.6000,2.702
19.6400,2.815
19.6800,2.751
19.7200,2.767
19.7600,2.648
19.8000,2.750
19.8400,2.701
19.8800,2.686
19.9200,2.623
19.9600,2.700
20.0000,2.617
20.0400,2.579
20.0800,2.650
20.1200,2.605
20.1600,2.697
20.2000,2.604
20.2400,2.662
20.2800,2.663
20.3200,2.589
20.3600,2.673
20.4000,2.607
20.4400,2.603
20.4800,2.565
20.5200,2.631
20.5600,2.531
20.6000,2.623
20.6400,2.606
20.6800,2.604
20.7200,2.673
20.7600,2.616
20.8000,2.610
20.8400,2.483
20.8800,2.565
20.9200,2.564
20.9600,2.487
21.0000,2.509
21.0400,2.597
21.0800,2.628
21.1200,2.624
21.1600,2.581
21.2000,2.528
21.2400,2.570
21.2800,2.530
21.3200,2.487
21.3600,2.526
21.4000,2.505
21.4400,2.586
21.4800,2.550
21.5200,2.508
21.5600,2.488
21.6000,2.575
21.6400,2.571
21.6800,2.576
21.7200,2.434
21.7600,2.554
21.8000,2.520
21.8400,2.542
21.8800,2.492
21.9200,2.488
21.9600,2.427
22.0000,2.503
22.0400,2.453
22.0800,2.496
22.1200,2.504
22.1600,2.517
22.2000,2.533
22.2400,2.537
22.2800,2.465
22.3200,2.455
22.3600,2.489
22.4000,2.472
22.4400,2.418
22.4800,2.422
22.5200,2.407
22.5600,2.476
22.6000,2.350
22.6400,2.423
22.6800,2.402
22.7200,2.319
22.7600,2.387
22.8000,2.375
22.8400,2.447
22.8800,2.381
22.9200,2.485
22.9600,2.419
23.0000,2.311
23.0400,2.359
23.0800,2.376
23.1200,2.357
23.1600,2.348
23.2000,2.361
23.2400,2.341
23.2800,2.362
23.3200,2.289
23.3600,2.429
23.4000,2.308
23.4400,2.263
23.4800,2.364
23.5200,2.335
23.5600,2.338
23.6000,2.362
23.6400,2.256
23.6800,2.317
23.7200,2.311
23.7600,2.373
23.8000,2.382
23.8400,2.354
23.8800,2.295
23.9200,2.280
23.9600,2.299
24.0000,2.367
24.0400,2.256
24.0800,2.383
24.1200,2.251
24.1600,2.333
24.2000,2.341
24.2400,2.258
24.2800,2.327
24.3200,2.268
24.3600,2.276
24.4000,2.300
24.4400,2.237
24.4800,2.156
24.5200,2.211
24.5600,2.238
24.6000,2.244
24.6400,2.292
24.6800,2.175
24.7200,2.202
24.7600,2.215
24.8000,2.299
24.8400,2.177
24.8800,2.246
24.9200,2.226
24.9600,2.221
25.0000,2.227
25.0400,2.271
25.0800,2.214
25.1200,2.162
25.1600,2.204
25.2000,2.190
25.2400,2.094
25.2800,2.192
25.3200,2.185
25.3600,2.216
25.4000,2.200
25.4400,2.200
25.4800,2.129
25.5200,2.124
25.5600,2.177
25.6000,2.128
25.6400,2.224
25.6800,2.192
25.7200,2.087
25.7600,2.105
25.8000,2.164
25.8400,2.158
25.8800,2.147
25.9200,2.141
25.9600,2.129
26.0000,2.188
26.0400,2.109
26.0800,2.194
26.1200,2.184
26.1600,2.098
26.2000,2.149
26.2400,2.081
26.2800,2.057
26.3200,2.129
26.3600,2.129
26.4000,2.096
26.4400,2.093
26.4800,2.124
26.5200,2.077
26.5600,2.116
26.6000,2.092
26.6400,2.023
26.6800,2.097
26.7200,2.062
26.7600,2.109
26.8000,2.054
26.8400,2.116
26.8800,2.059
26.9200,2.149
26.9600,2.108
27.0000,2.059
27.0400,1.993
27.0800,2.033
27.1200,1.997
27.1600,2.049
27.2000,2.053
27.2400,1.966
27.2800,1.975
27.3200,2.019
27.3600,2.049
27.4000,1.982
27.4400,2.020
27.4800,2.021
27.5200,2.053
27.5600,1.996
27.6000,1.973
27.6400,1.983
27.6800,1.945
27.7200,1.968
27.7600,2.013
27.8000,1.978
27.8400,1.958
27.8800,1.990
27.9200,2.021
27.9600,1.932
28.0000,1.966
28.0400,1.950
28.0800,2.008
28.1200,1.955
28.1600,1.964
28.2000,1.862
28.2400,1.948
28.2800,1.981
28.3200,1.963
28.3600,2.014
28.4000,1.914
28.4400,1.875
28.4800,1.959
28.5200,1.881
28.5600,1.937
28.6000,1.962
28.6400,1.961
28.6800,1.897
28.7200,1.906
28.7600,1.884
28.8000,1.882
28.8400,1.849
28.8800,1.888
28.9200,1.859
28.9600,1.973
29.0000,1.866
29.0400,1.958
29.0800,1.983
29.1200,1.926
29.1600,1.865
29.2000,1.806
29.2400,1.881
29.2800,1.842
29.3200,1.801
29.3600,1.891
29.4000,1.838
29.4400,1.859
29.4800,1.894
29.5200,1.856
29.5600,1.832
29.6000,1.846
29.6400,1.827
29.6800,1.765
29.7200,1.874
29.7600,1.850
29.8000,1.814
29.8400,1.817
29.8800,1.852
29.9200,1.789
29.9600,1.853
30.0000,1.782
30.0400,1.794
30.0800,1.801
30.1200,1.828
30.1600,1.832
30.2000,1.873
30.2400,1.906
30.2800,1.841
30.3200,1.835
30.3600,1.793
30.4000,1.809
30.4400,1.807
30.4800,1.799
30.5200,1.800
30.5600,1.707
30.6000,1.806
30.6400,1.844
30.6800,1.869
30.7200,1.781
30.7600,1.810
30.8000,1.810
30.8400,1.824
30.8800,1.802
30.9200,1.744
30.9600,1.815
31.0000,1.842
31.0400,1.767
31.0800,1.787
31.1200,1.813
31.1600,1.817
31.2000,1.839
31.2400,1.801
31.2800,1.867
31.3200,1.901
31.3600,1.840
31.4000,1.972
31.4400,1.954
31.4800,1.952
31.5200,2.017
31.5600,2.050
31.6000,2.073
31.6400,2.177
31.6800,2.262
31.7200,2.318
31.7600,2.508
31.8000,2.542
31.8400,2.599
31.8800,2.596
31.9200,2.587
31.9600,2.656
32.0000,2.622
32.0400,2.529
32.0800,2.469
32.1200,2.342
32.1600,2.245
32.2000,2.233
32.2400,2.120
32.2800,2.098
32.3200,1.966
32.3600,1.979
32.4000,1.949
32.4400,1.937
32.4800,1.926
32.5200,1.753
32.5600,1.813
32.6000,1.805
32.6400,1.744
32.6800,1.706
32.7200,1.705
32.7600,1.772
32.8000,1.800
32.8400,1.700
32.8800,1.666
32.9200,1.710
32.9600,1.670
33.0000,1.794
33.0400,1.725
33.0800,3.132
33.1200,4.886
33.1600,3.140
33.2000,1.740
33.2400,1.681
33.2800,1.643
33.3200,1.691
33.3600,1.662
33.4000,1.668
33.4400,1.666
33.4800,1.656
33.5200,1.661
33.5600,1.659
33.6000,1.638
33.6400,1.634
33.6800,1.670
33.7200,1.629
33.7600,1.649
33.8000,1.679
33.8400,1.692
33.8800,1.738
33.9200,1.782
33.9600,1.777
34.0000,1.691
34.0400,1.798
34.0800,1.850
34.1200,1.814
34.1600,1.868
34.2000,1.984
34.2400,1.997
34.2800,2.014
34.3200,2.175
34.3600,2.108
34.4000,2.207
34.4400,2.147
34.4800,2.149
34.5200,2.249
34.5600,2.126
34.6000,2.134
34.6400,2.098
34.6800,2.083
34.7200,2.043
34.7600,1.986
34.8000,1.889
34.8400,1.862
34.8800,1.842
34.9200,1.686
34.9600,1.750
35.0000,1.794
35.0400,1.711
35.0800,1.685
35.1200,1.708
35.1600,1.620
35.2000,1.653
35.2400,1.616
35.2800,1.635
35.3200,1.603
35.3600,1.623
35.4000,1.623
35.4400,1.621
35.4800,1.671
35.5200,1.634
35.5600,1.604
35.6000,1.632
35.6400,1.669
35.6800,1.748
35.7200,1.752
35.7600,1.759
35.8000,1.795
35.8400,1.856
35.8800,1.915
35.9200,1.937
35.9600,2.026
36.0000,2.063
36.0400,2.164
36.0800,2.246
36.1200,2.421
36.1600,2.492
36.2000,2.482
36.2400,2.634
36.2800,2.688
36.3200,2.714
36.3600,2.707
36.4000,2.763
36.4400,2.747
36.4800,2.678
36.5200,2.554
36.5600,2.525
36.6000,2.462
36.6400,2.386
36.6800,2.281
36.7200,2.165
36.7600,2.092
36.8000,1.957
36.8400,1.859
36.8800,1.831
36.9200,1.838
36.9600,1.787
37.0000,1.709
37.0400,1.691
37.0800,1.681
37.1200,1.624
37.1600,1.608
37.2000,1.621
37.2400,1.601
37.2800,1.635
37.3200,1.608
37.3600,1.620
37.4000,1.688
37.4400,1.716
37.4800,1.841
37.5200,1.965
37.5600,2.079
37.6000,2.210
37.6400,2.296
37.6800,2.179
37.7200,2.144
37.7600,1.996
37.8000,1.935
37.8400,1.883
37.8800,1.769
37.9200,1.702
37.9600,1.611
38.0000,1.566
38.0400,1.466
38.0800,1.501
38.1200,1.432
38.1600,1.447
38.2000,1.421
38.2400,1.429
38.2800,1.397
38.3200,1.409
38.3600,1.309
38.4000,1.294
38.4400,1.301
38.4800,1.280
38.5200,1.347
38.5600,1.381
38.6000,1.286
38.6400,1.338
38.6800,1.316
38.7200,1.293
38.7600,1.291
38.8000,1.372
38.8400,1.368
38.8800,1.386
38.9200,1.388
38.9600,1.371
39.0000,1.427
39.0400,1.305
39.0800,1.369
39.1200,1.364
39.1600,1.318
39.2000,1.323
39.2400,1.289
39.2800,1.306
39.3200,1.311
39.3600,1.299
39.4000,1.311
39.4400,1.251
39.4800,1.262
39.5200,1.240
39.5600,1.268
39.6000,1.259
39.6400,1.243
39.6800,1.232
39.7200,1.195
39.7600,1.265
39.8000,1.187
39.8400,1.208
39.8800,1.269
39.9200,1.215
39.9600,1.182
40.0000,1.268
40.0400,1.232
40.0800,1.215
40.1200,1.171
40.1600,1.193
40.2000,1.278
40.2400,1.235
40.2800,1.186
40.3200,1.181
40.3600,1.177
40.4000,1.200
40.4400,1.168
40.4800,1.180
40.5200,1.217
40.5600,1.208
40.6000,1.201
40.6400,1.161
40.6800,1.197
40.7200,1.194
40.7600,1.231
40.8000,1.236
40.8400,1.178
40.8800,1.230
40.9200,1.173
40.9600,1.193
41.0000,1.160
41.0400,1.198
41.0800,1.181
41.1200,1.190
41.1600,1.186
41.2000,1.259
41.2400,1.154
41.2800,1.162
41.3200,1.191
41.3600,1.165
41.4000,1.214
41.4400,1.240
41.4800,1.202
41.5200,1.196
41.5600,1.202
41.6000,1.186
41.6400,1.230
41.6800,1.289
41.7200,1.331
41.7600,1.328
41.8000,1.388
41.8400,1.456
41.8800,1.552
41.9200,1.769
41.9600,1.815
42.0000,1.986
42.0400,2.076
42.0800,2.056
42.1200,1.916
42.1600,1.871
42.2000,1.646
42.2400,1.560
42.2800,1.472
42.3200,1.425
42.3600,1.330
42.4000,1.370
42.4400,1.302
42.4800,1.229
42.5200,1.231
42.5600,1.332
42.6000,1.284
42.6400,1.252
42.6800,1.305
42.7200,1.363
42.7600,1.281
42.8000,1.340
42.8400,1.390
42.8800,1.469
42.9200,1.485
42.9600,1.557
43.0000,1.790
43.0400,2.076
43.0800,2.361
43.1200,2.722
43.1600,3.287
43.2000,3.914
43.2400,4.241
43.2800,4.663
43.3200,4.636
43.3600,4.664
43.4000,4.312
43.4400,3.797
43.4800,3.449
43.5200,3.031
43.5600,2.500
43.6000,2.278
43.6400,2.011
43.6800,1.734
43.7200,1.635
43.7600,1.507
43.8000,1.396
43.8400,1.362
43.8800,1.281
43.9200,1.211
43.9600,1.190
44.0000,1.179
44.0400,1.155
44.0800,1.148
44.1200,1.054
44.1600,1.075
44.2000,1.105
44.2400,1.110
44.2800,1.093
44.3200,1.080
44.3600,1.053
44.4000,1.039
44.4400,1.106
44.4800,1.081
44.5200,1.049
44.5600,1.067
44.6000,1.030
44.6400,1.029
44.6800,0.994
44.7200,0.982
44.7600,1.013
44.8000,1.031
44.8400,1.029
44.8800,1.034
44.9200,1.054
44.9600,0.998
45.0000,1.021
45.0400,0.999
45.0800,0.977
45.1200,0.983
45.1600,0.994
45.2000,0.971
45.2400,0.987
45.2800,0.970
45.3200,0.989
45.3600,0.974
45.4000,1.010
45.4400,1.010
45.4800,0.986
45.5200,0.985
45.5600,0.942
45.6000,0.966
45.6400,0.962
45.6800,0.974
45.7200,1.000
45.7600,0.978
45.8000,0.922
45.8400,1.014
45.8800,0.943
45.9200,1.030
45.9600,1.012
46.0000,0.920
46.0400,0.947
46.0800,0.934
46.1200,0.894
46.1600,0.896
46.2000,0.919
46.2400,0.934
46.2800,0.951
46.3200,0.952
46.3600,0.946
46.4000,0.892
46.4400,0.946
46.4800,0.921
46.5200,0.923
46.5600,0.927
46.6000,0.941
46.6400,1.003
46.6800,0.904
46.7200,0.964
46.7600,0.913
46.8000,0.975
46.8400,0.931
46.8800,0.940
46.9200,0.863
46.9600,0.945
47.0000,0.934
47.0400,0.943
47.0800,0.961
47.1200,1.006
47.1600,1.013
47.2000,0.999
47.2400,1.028
47.2800,0.968
47.3200,0.985
47.3600,0.961
47.4000,1.015
47.4400,0.982
47.4800,1.052
47.5200,0.989
47.5600,1.017
47.6000,1.002
47.6400,0.971
47.6800,0.958
47.7200,0.956
47.7600,0.964
47.8000,0.969
47.8400,1.020
47.8800,0.968
47.9200,0.967
47.9600,0.998
48.0000,0.956
48.0400,0.982
48.0800,0.982
48.1200,0.934
48.1600,0.957
48.2000,0.905
48.2400,0.941
48.2800,0.868
48.3200,0.895
48.3600,0.872
48.4000,0.842
48.4400,0.922
48.4800,0.906
48.5200,0.901
48.5600,0.947
48.6000,0.904
48.6400,0.888
48.6800,0.873
48.7200,0.868
48.7600,0.857
48.8000,0.878
48.8400,0.935
48.8800,0.850
48.9200,0.854
48.9600,0.912
49.0000,0.836
49.0400,0.810
49.0800,0.879
49.1200,0.873
49.1600,0.800
49.2000,0.781
49.2400,0.826
49.2800,0.793
49.3200,0.786
49.3600,0.805
49.4000,0.813
49.4400,0.800
49.4800,0.852
49.5200,0.834
49.5600,0.845
49.6000,0.849
49.6400,0.814
49.6800,0.840
49.7200,0.819
49.7600,0.792
49.8000,0.789
49.8400,0.733
49.8800,0.846
49.9200,0.778
49.9600,0.754
50.0000,0.817
50.0400,0.769
50.0800,0.771
50.1200,0.822
50.1600,0.767
50.2000,0.768
50.2400,0.722
50.2800,0.783
50.3200,0.724
50.3600,0.796
50.4000,0.747
50.4400,0.779
50.4800,0.793
50.5200,0.714
50.5600,0.826
50.6000,0.782
50.6400,0.798
50.6800,0.798
50.7200,0.804
50.7600,0.780
50.8000,0.740
50.8400,0.765
50.8800,0.788
50.9200,0.751
50.9600,0.751
51.0000,0.786
51.0400,0.750
51.0800,0.757
51.1200,0.769
51.1600,0.790
51.2000,0.739
51.2400,0.738
51.2800,0.735
51.3200,0.707
51.3600,0.725
51.4000,0.729
51.4400,0.743
51.4800,0.755
51.5200,0.683
51.5600,0.771
51.6000,0.731
51.6400,0.783
51.6800,0.748
51.7200,0.684
51.7600,0.752
51.8000,0.736
51.8400,0.730
51.8800,0.736
51.9200,0.753
51.9600,0.731
52.0000,0.733
52.0400,0.748
52.0800,0.742
52.1200,0.717
52.1600,0.699
52.2000,0.728
52.2400,0.805
52.2800,0.752
52.3200,0.704
52.3600,0.703
52.4000,0.722
52.4400,0.735
52.4800,0.726
52.5200,0.777
52.5600,0.722
52.6000,0.695
52.6400,0.682
52.6800,0.720
52.7200,0.740
52.7600,0.685
52.8000,0.753
52.8400,0.684
52.8800,0.676
52.9200,0.662
52.9600,0.708
53.0000,0.695
53.0400,0.727
53.0800,0.701
53.1200,0.730
53.1600,0.735
53.2000,0.703
53.2400,0.729
53.2800,0.686
53.3200,0.660
53.3600,0.705
53.4000,0.682
53.4400,0.723
53.4800,0.662
53.5200,0.722
53.5600,0.699
53.6000,0.712
53.6400,0.692
53.6800,0.684
53.7200,0.739
53.7600,0.682
53.8000,0.663
53.8400,0.672
53.8800,0.704
53.9200,0.701
53.9600,0.690
54.0000,0.690
54.0400,0.703
54.0800,0.673
54.1200,0.642
54.1600,0.662
54.2000,0.679
54.2400,0.748
54.2800,0.658
54.3200,0.699
54.3600,0.670
54.4000,0.712
54.4400,0.733
54.4800,0.720
54.5200,0.744
54.5600,0.702
54.6000,0.711
54.6400,0.694
54.6800,0.682
54.7200,0.691
54.7600,0.690
54.8000,0.725
54.8400,0.689
54.8800,0.664
54.9200,0.684
54.9600,0.703
55.0000,0.694
55.0400,0.706
55.0800,0.687
55.1200,0.711
55.1600,0.660
55.2000,0.679
55.2400,0.666
55.2800,0.687
55.3200,0.645
55.3600,0.642
55.4000,0.651
55.4400,0.670
55.4800,0.658
55.5200,0.655
55.5600,0.646
55.6000,0.671
55.6400,0.707
55.6800,0.711
55.7200,0.691
55.7600,0.663
55.8000,0.674
55.8400,0.654
55.8800,0.709
55.9200,0.725
55.9600,0.691
56.0000,0.716
56.0400,0.735
56.0800,0.676
56.1200,0.722
56.1600,0.725
56.2000,0.715
56.2400,0.738
56.2800,0.784
56.3200,0.790
56.3600,0.828
56.4000,0.806
56.4400,0.831
56.4800,0.852
56.5200,0.935
56.5600,0.912
56.6000,0.957
56.6400,0.929
56.6800,0.951
56.7200,1.015
56.7600,1.008
56.8000,0.996
56.8400,1.051
56.8800,1.025
56.9200,0.955
56.9600,1.018
57.0000,0.968
57.0400,0.876
57.0800,0.870
57.1200,0.867
57.1600,0.887
57.2000,0.845
57.2400,0.829
57.2800,0.906
57.3200,0.770
57.3600,0.781
57.4000,0.809
57.4400,0.857
57.4800,0.884
57.5200,0.892
57.5600,0.918
57.6000,0.949
57.6400,0.941
57.6800,0.929
57.7200,0.983
57.7600,0.996
57.8000,0.950
57.8400,0.901
57.8800,0.877
57.9200,0.830
57.9600,0.772
58.0000,0.794
58.0400,0.711
58.0800,0.722
58.1200,0.692
58.1600,0.694
58.2000,0.671
58.2400,0.688
58.2800,0.635
58.3200,0.627
58.3600,0.617
58.4000,0.620
58.4400,0.645
58.4800,0.660
58.5200,0.581
58.5600,0.638
58.6000,0.605
58.6400,0.604
58.6800,0.605
58.7200,0.614
58.7600,0.615
58.8000,0.599
58.8400,0.610
58.8800,0.654
58.9200,0.654
58.9600,0.551
59.0000,0.591
59.0400,0.607
59.0800,0.612
59.1200,0.592
59.1600,0.553
59.2000,0.573
59.2400,0.601
59.2800,0.624
59.3200,0.571
59.3600,0.556
59.4000,0.573
59.4400,0.603
59.4800,0.555
59.5200,0.571
59.5600,0.577
59.6000,0.595
59.6400,0.617
59.6800,0.588
59.7200,0.592
59.7600,0.567
59.8000,0.600
59.8400,0.586
59.8800,0.555
59.9200,0.583
59.9600,0.647
60.0000,0.575
60.0400,0.602
60.0800,0.569
60.1200,0.561
60.1600,0.559
60.2000,0.566
60.2400,0.590
60.2800,0.530
60.3200,0.559
60.3600,0.560
60.4000,0.614
60.4400,0.574
60.4800,0.576
60.5200,0.587
60.5600,0.568
60.6000,0.598
60.6400,0.543
60.6800,0.577
60.7200,0.561
60.7600,0.591
60.8000,0.557
60.8400,0.585
60.8800,0.581
60.9200,0.579
60.9600,0.546
61.0000,0.572
61.0400,0.615
61.0800,0.601
61.1200,0.604
61.1600,0.562
61.2000,0.552
61.2400,0.558
61.2800,0.576
61.3200,0.540
61.3600,0.544
61.4000,0.532
61.4400,0.597
61.4800,0.531
61.5200,0.581
61.5600,0.600
61.6000,0.573
61.6400,0.585
61.6800,0.650
61.7200,0.684
61.7600,0.633
61.8000,0.608
61.8400,0.584
61.8800,0.634
61.9200,0.601
61.9600,0.607
62.0000,0.616
62.0400,0.584
62.0800,0.583
62.1200,0.634
62.1600,0.630
62.2000,0.617
62.2400,0.590
62.2800,0.633
62.3200,0.625
62.3600,0.610
62.4000,0.678
62.4400,0.643
62.4800,0.661
62.5200,0.645
62.5600,0.655
62.6000,0.681
62.6400,0.694
62.6800,0.695
62.7200,0.684
62.7600,0.704
62.8000,0.653
62.8400,0.708
62.8800,0.690
62.9200,0.733
62.9600,0.693
63.0000,0.703
63.0400,0.699
63.0800,0.746
63.1200,0.704
63.1600,0.677
63.2000,0.711
63.2400,0.712
63.2800,0.678
63.3200,0.676
63.3600,0.638
63.4000,0.701
63.4400,0.669
63.4800,0.598
63.5200,0.640
63.5600,0.653
63.6000,0.638
63.6400,0.618
63.6800,0.628
63.7200,0.650
63.7600,0.606
63.8000,0.576
63.8400,0.615
63.8800,0.575
63.9200,0.595
63.9600,0.590
64.0000,0.615
64.0400,0.632
64.0800,0.529
64.1200,0.612
64.1600,0.610
64.2000,0.600
64.2400,0.568
64.2800,0.604
64.3200,0.586
64.3600,0.589
64.4000,0.600
64.4400,0.639
64.4800,0.575
64.5200,0.620
64.5600,0.612
64.6000,0.625
64.6400,0.613
64.6800,0.546
64.7200,0.547
64.7600,0.586
64.8000,0.595
64.8400,0.595
64.8800,0.593
64.9200,0.615
64.9600,0.655
65.0000,0.619
65.0400,0.602
65.0800,0.621
65.1200,0.640
65.1600,0.644
65.2000,0.625
65.2400,0.585
65.2800,0.613
65.3200,0.653
65.3600,0.667
65.4000,0.664
65.4400,0.679
65.4800,0.654
65.5200,0.628
65.5600,0.643
65.6000,0.692
65.6400,0.682
65.6800,0.708
65.7200,0.683
65.7600,0.667
65.8000,0.715
65.8400,0.747
65.8800,0.736
65.9200,0.809
65.9600,0.768
66.0000,0.705
66.0400,0.735
66.0800,0.705
66.1200,0.766
66.1600,0.761
66.2000,0.778
66.2400,0.785
66.2800,0.842
66.3200,0.816
66.3600,0.878
66.4000,0.865
66.4400,0.897
66.4800,0.887
66.5200,0.895
66.5600,0.956
66.6000,0.949
66.6400,0.944
66.6800,0.933
66.7200,0.903
66.7600,0.916
66.8000,0.935
66.8400,0.992
66.8800,0.983
66.9200,1.009
66.9600,1.054
67.0000,1.047
67.0400,1.078
67.0800,1.085
67.1200,1.121
67.1600,1.177
67.2000,1.174
67.2400,1.183
67.2800,1.223
67.3200,1.281
67.3600,1.301
67.4000,1.319
67.4400,1.289
67.4800,1.382
67.5200,1.414
67.5600,1.536
67.6000,1.590
67.6400,1.587
67.6800,1.666
67.7200,1.682
67.7600,1.739
67.8000,1.797
67.8400,1.860
67.8800,1.955
67.9200,1.939
67.9600,2.023
68.0000,2.105
68.0400,2.092
68.0800,2.109
68.1200,2.163
68.1600,2.292
68.2000,2.197
68.2400,2.302
68.2800,2.395
68.3200,2.360
68.3600,2.436
68.4000,2.537
68.4400,2.668
68.4800,2.743
68.5200,2.749
68.5600,2.969
68.6000,3.049
68.6400,3.261
68.6800,3.531
68.7200,4.032
68.7600,4.708
68.8000,6.183
68.8400,7.763
68.8800,8.675
68.9200,8.557
68.9600,9.105
69.0000,11.042
69.0400,15.796
69.0800,28.319
69.1200,86.637
69.1600,398.705
69.2000,619.476
69.2400,309.956
69.2800,77.135
69.3200,73.513
69.3600,226.478
69.4000,314.635
69.4400,151.243
69.4800,37.596
69.5200,16.670
69.5600,10.974
69.6000,8.500
69.6400,6.918
69.6800,6.024
69.7200,5.158
69.7600,4.629
69.8000,4.181
69.8400,3.820
69.8800,3.536
69.9200,3.238
69.9600,3.116
70.0000,3.015
70.0400,2.879
70.0800,2.727
70.1200,2.632
70.1600,2.523
70.2000,2.442
70.2400,2.295
70.2800,2.336
70.3200,2.176
70.3600,2.048
70.4000,2.038
70.4400,2.010
70.4800,1.947
70.5200,1.842
70.5600,1.743
70.6000,1.709
70.6400,1.707
70.6800,1.666
70.7200,1.537
70.7600,1.560
70.8000,1.453
70.8400,1.456
70.8800,1.457
70.9200,1.404
70.9600,1.266
71.0000,1.305
71.0400,1.240
71.0800,1.206
71.1200,1.214
71.1600,1.177
71.2000,1.152
71.2400,1.159
71.2800,1.090
71.3200,1.070
71.3600,0.985
71.4000,1.013
71.4400,0.977
71.4800,0.972
71.5200,0.924
71.5600,0.969
71.6000,0.908
71.6400,0.916
71.6800,0.860
71.7200,0.884
71.7600,0.870
71.8000,0.855
71.8400,0.819
71.8800,0.791
71.9200,0.760
71.9600,0.792
72.0000,0.833
72.0400,0.694
72.0800,0.728
72.1200,0.691
72.1600,0.685
72.2000,0.784
72.2400,0.744
72.2800,0.692
72.3200,0.700
72.3600,0.663
72.4000,0.669
72.4400,0.669
72.4800,0.612
72.5200,0.647
72.5600,0.588
72.6000,0.635
72.6400,0.624
72.6800,0.614
72.7200,0.611
72.7600,0.593
72.8000,0.600
72.8400,0.598
72.8800,0.559
72.9200,0.547
72.9600,0.563
73.0000,0.527
73.0400,0.518
73.0800,0.556
73.1200,0.529
73.1600,0.523
73.2000,0.500
73.2400,0.517
73.2800,0.508
73.3200,0.490
73.3600,0.498
73.4000,0.497
73.4400,0.459
73.4800,0.496
73.5200,0.510
73.5600,0.490
73.6000,0.469
73.6400,0.479
73.6800,0.469
73.7200,0.449
73.7600,0.424
73.8000,0.460
73.8400,0.450
73.8800,0.432
73.9200,0.431
73.9600,0.439
74.0000,0.416
74.0400,0.477
74.0800,0.420
74.1200,0.444
74.1600,0.419
74.2000,0.436
74.2400,0.442
74.2800,0.404
74.3200,0.410
74.3600,0.434
74.4000,0.425
74.4400,0.420
74.4800,0.413
74.5200,0.429
74.5600,0.431
74.6000,0.377
74.6400,0.390
74.6800,0.401
74.7200,0.409
74.7600,0.419
74.8000,0.406
74.8400,0.380
74.8800,0.384
74.9200,0.377
74.9600,0.393
75.0000,0.399
75.0400,0.378
75.0800,0.384
75.1200,0.412
75.1600,0.359
75.2000,0.390
75.2400,0.381
75.2800,0.376
75.3200,0.393
75.3600,0.389
75.4000,0.391
75.4400,0.362
75.4800,0.362
75.5200,0.367
75.5600,0.404
75.6000,0.384
75.6400,0.377
75.6800,0.360
75.7200,0.365
75.7600,0.354
75.8000,0.411
75.8400,0.405
75.8800,0.343
75.9200,0.361
75.9600,0.348
76.0000,0.375
76.0400,0.397
76.0800,0.367
76.1200,0.407
76.1600,0.374
76.2000,0.332
76.2400,0.357
76.2800,0.374
76.3200,0.354
76.3600,0.362
76.4000,0.316
76.4400,0.358
76.4800,0.358
76.5200,0.363
76.5600,0.357
76.6000,0.369
76.6400,0.372
76.6800,0.365
76.7200,0.339
76.7600,0.345
76.8000,0.356
76.8400,0.396
76.8800,0.383
76.9200,0.348
76.9600,0.361
77.0000,0.362
77.0400,0.388
77.0800,0.360
77.1200,0.326
77.1600,0.361
77.2000,0.366
77.2400,0.410
77.2800,0.372
77.3200,0.423
77.3600,0.403
77.4000,0.428
77.4400,0.450
77.4800,0.429
77.5200,0.515
77.5600,0.500
77.6000,0.505
77.6400,0.500
77.6800,0.507
77.7200,0.500
77.7600,0.531
77.8000,0.490
77.8400,0.503
77.8800,0.450
77.9200,0.492
77.9600,0.434
78.0000,0.466
78.0400,0.446
78.0800,0.439
78.1200,0.377
78.1600,0.381
78.2000,0.397
78.2400,0.368
78.2800,0.330
78.3200,0.331
78.3600,0.319
78.4000,0.344
78.4400,0.333
78.4800,0.319
78.5200,0.349
78.5600,0.321
78.6000,0.302
78.6400,0.298
78.6800,0.300
78.7200,0.313
78.7600,0.316
78.8000,0.330
78.8400,0.337
78.8800,0.306
78.9200,0.301
78.9600,0.332
79.0000,0.295
79.0400,0.324
79.0800,0.289
79.1200,0.299
79.1600,0.287
79.2000,0.291
79.2400,0.301
79.2800,0.317
79.3200,0.309
79.3600,0.279
79.4000,0.314
79.4400,0.268
79.4800,0.293
79.5200,0.304
79.5600,0.298
79.6000,0.298
79.6400,0.310
79.6800,0.321
79.7200,0.304
79.7600,0.307
79.8000,0.275
79.8400,0.295
79.8800,0.284
79.9200,0.277
79.9600,0.310
80.0000,0.277
