theta,intensity
5.0000,5.831
5.0400,5.895
5.0800,5.696
5.1200,5.623
5.1600,5.522
5.2000,5.519
5.2400,5.512
5.2800,5.371
5.3200,5.345
5.3600,5.304
5.4000,5.109
5.4400,4.990
5.4800,4.921
5.5200,4.848
5.5600,4.771
5.6000,4.786
5.6400,4.688
5.6800,4.704
5.7200,4.548
5.7600,4.425
5.8000,4.484
5.8400,4.527
5.8800,4.409
5.9200,4.370
5.9600,4.401
6.0000,4.413
6.0400,4.346
6.0800,4.241
6.1200,4.332
6.1600,4.232
6.2000,4.192
6.2400,4.209
6.2800,4.247
6.3200,4.152
6.3600,4.247
6.4000,4.159
6.4400,4.124
6.4800,4.166
6.5200,4.161
6.5600,4.107
6.6000,4.141
6.6400,4.209
6.6800,4.111
6.7200,4.142
6.7600,4.153
6.8000,4.179
6.8400,4.043
6.8800,4.134
6.9200,4.094
6.9600,4.069
7.0000,4.190
7.0400,4.151
7.0800,4.127
7.1200,4.068
7.1600,4.146
7.2000,4.154
7.2400,4.077
7.2800,4.071
7.3200,4.016
7.3600,4.054
7.4000,4.079
7.4400,4.056
7.4800,4.090
7.5200,4.010
7.5600,4.101
7.6000,4.001
7.6400,3.949
7.6800,4.045
7.7200,3.915
7.7600,3.995
7.8000,4.048
7.8400,3.980
7.8800,4.086
7.9200,4.012
7.9600,3.923
8.0000,3.956
8.0400,3.866
8.0800,3.977
8.1200,3.864
8.1600,3.911
8.2000,3.871
8.2400,3.897
8.2800,3.883
8.3200,4.058
8.3600,3.821
8.4000,3.889
8.4400,3.868
8.4800,3.884
8.5200,3.783
8.5600,3.765
8.6000,3.796
8.6400,3.836
8.6800,3.829
8.7200,3.781
8.7600,3.954
8.8000,3.783
8.8400,3.782
8.8800,3.893
8.9200,3.874
8.9600,3.907
9.0000,3.896
9.0400,3.827
9.0800,3.805
9.1200,3.724
9.1600,3.828
9.2000,3.888
9.2400,3.780
9.2800,3.761
9.3200,3.809
9.3600,3.762
9.4000,3.749
9.4400,3.797
9.4800,3.731
9.5200,3.780
9.5600,3.767
9.6000,3.799
9.6400,3.631
9.6800,3.784
9.7200,3.744
9.7600,3.699
9.8000,3.696
9.8400,3.654
9.8800,3.677
9.9200,3.575
9.9600,3.793
10.0000,3.718
10.0400,3.734
10.0800,3.620
10.1200,3.552
10.1600,3.644
10.2000,3.694
10.2400,3.672
10.2800,3.751
10.3200,3.673
10.3600,3.640
10.4000,3.750
10.4400,3.662
10.4800,3.703
10.5200,3.681
10.5600,3.649
10.6000,3.580
10.6400,3.665
10.6800,3.701
10.7200,3.546
10.7600,3.576
10.8000,3.614
10.8400,3.570
10.8800,3.590
10.9200,3.582
10.9600,3.544
11.0000,3.628
11.0400,3.588
11.0800,3.661
11.1200,3.509
11.1600,3.533
11.2000,3.545
11.2400,3.591
11.2800,3.528
11.3200,3.567
11.3600,3.600
11.4000,3.561
11.4400,3.544
11.4800,3.506
11.5200,3.549
11.5600,3.566
11.6000,3.491
11.6400,3.578
11.6800,3.451
11.7200,3.403
11.7600,3.416
11.8000,3.683
11.8400,3.595
11.8800,3.496
11.9200,3.551
11.9600,3.505
12.0000,3.497
12.0400,3.585
12.0800,3.538
12.1200,3.563
12.1600,3.383
12.2000,3.527
12.2400,3.454
12.2800,3.513
12.3200,3.441
12.3600,3.459
12.4000,3.465
12.4400,3.491
12.4800,3.467
12.5200,3.459
12.5600,3.232
12.6000,3.360
12.6400,3.468
12.6800,3.474
12.7200,3.486
12.7600,3.298
12.8000,3.289
12.8400,3.366
12.8800,3.426
12.9200,3.288
12.9600,3.351
13.0000,3.419
13.0400,3.349
13.0800,3.374
13.1200,3.326
13.1600,3.345
13.2000,3.415
13.2400,3.395
13.2800,3.386
13.3200,3.313
13.3600,3.316
13.4000,3.247
13.4400,3.317
13.4800,3.251
13.5200,3.285
13.5600,3.335
13.6000,3.346
13.6400,3.352
13.6800,3.418
13.7200,3.346
13.7600,3.275
13.8000,3.325
13.8400,3.263
13.8800,3.334
13.9200,3.255
13.9600,3.353
14.0000,3.349
14.0400,3.260
14.0800,3.261
14.1200,3.270
14.1600,3.300
14.2000,3.220
14.2400,3.248
14.2800,3.347
14.3200,3.402
14.3600,3.361
14.4000,3.289
14.4400,3.295
14.4800,3.222
14.5200,3.230
14.5600,3.166
14.6000,3.243
14.6400,3.288
14.6800,3.364
14.7200,3.226
14.7600,3.216
14.8000,3.181
14.8400,3.267
14.8800,3.209
14.9200,3.232
14.9600,3.238
15.0000,3.166
15.0400,3.297
15.0800,3.175
15.1200,3.237
15.1600,3.253
15.2000,3.201
15.2400,3.200
15.2800,3.232
15.3200,3.124
15.3600,3.241
15.4000,3.147
15.4400,3.216
15.4800,3.157
15.5200,3.152
15.5600,3.179
15.6000,3.199
15.6400,3.133
15.6800,3.139
15.7200,3.116
15.7600,3.172
15.8000,3.003
15.8400,3.045
15.8800,3.118
15.9200,3.143
15.9600,3.066
16.0000,3.095
16.0400,3.185
16.0800,3.142
16.1200,3.178
16.1600,3.075
16.2000,3.097
16.2400,3.156
16.2800,3.119
16.3200,2.979
16.3600,3.048
16.4000,3.018
16.4400,3.025
16.4800,3.090
16.5200,3.165
16.5600,3.055
16.6000,2.999
16.6400,3.046
16.6800,3.031
16.7200,2.968
16.7600,3.056
16.8000,3.045
16.8400,2.995
16.8800,3.007
16.9200,3.110
16.9600,2.940
17.0000,2.983
17.0400,3.099
17.0800,3.041
17.1200,3.076
17.1600,3.058
17.2000,2.889
17.2400,3.018
17.2800,2.952
17.3200,2.994
17.3600,2.858
17.4000,3.055
17.4400,3.005
17.4800,2.891
17.5200,2.926
17.5600,2.904
17.6000,2.962
17.6400,2.966
17.6800,2.925
17.7200,2.999
17.7600,2.929
17.8000,2.969
17.8400,2.913
17.8800,2.970
17.9200,2.931
17.9600,3.151
18.0000,3.051
18.0400,3.051
18.0800,3.202
18.1200,3.330
18.1600,3.325
18.2000,3.470
18.2400,3.378
18.2800,3.367
18.3200,3.292
18.3600,3.180
18.4000,3.066
18.4400,2.912
18.4800,3.063
18.5200,2.876
18.5600,2.862
18.6000,2.896
18.6400,2.810
18.6800,2.851
18.7200,2.841
18.7600,2.880
18.8000,2.885
18.8400,2.850
18.8800,2.929
18.9200,2.873
18.9600,2.889
19.0000,2.788
19.0400,2.803
19.0800,2.844
19.1200,2.757
19.1600,2.814
19.2000,2.817
19.2400,2.808
19.2800,2.817
19.3200,2.699
19.3600,2.781
19.4000,2.861
19.4400,2.880
19.4800,2.817
19.5200,2.890
19.5600,2.821
19.6000,2.819
19.6400,2.735
19.6800,2.863
19.7200,2.742
19.7600,2.717
19.8000,2.721
19.8400,2.763
19.8800,2.776
19.9200,2.710
19.9600,2.705
20.0000,2.719
20.0400,2.689
20.0800,2.750
20.1200,2.705
20.1600,2.696
20.2000,2.770
20.2400,2.748
20.2800,2.646
20.3200,2.717
20.3600,2.711
20.4000,2.720
20.4400,2.676
20.4800,2.613
20.5200,2.729
20.5600,2.669
20.6000,2.657
20.6400,2.674
20.6800,2.740
20.7200,2.673
20.7600,2.671
20.8000,2.721
20.8400,2.683
20.8800,2.626
20.9200,2.650
20.9600,2.629
21.0000,2.571
21.0400,2.577
21.0800,2.499
21.1200,2.635
21.1600,2.644
21.2000,2.644
21.2400,2.596
21.2800,2.665
21.3200,2.532
21.3600,2.632
21.4000,2.623
21.4400,2.616
21.4800,2.655
21.5200,2.636
21.5600,2.535
21.6000,2.557
21.6400,2.469
21.6800,2.512
21.7200,2.526
21.7600,2.636
21.8000,2.585
21.8400,2.507
21.8800,2.561
21.9200,2.518
21.9600,2.522
22.0000,2.504
22.0400,2.526
22.0800,2.551
22.1200,2.624
22.1600,2.550
22.2000,2.579
22.2400,2.518
22.2800,2.491
22.3200,2.510
22.3600,2.605
22.4000,2.527
22.4400,2.460
22.4800,2.518
22.5200,2.391
22.5600,2.447
22.6000,2.421
22.6400,2.509
22.6800,2.497
22.7200,2.488
22.7600,2.514
22.8000,2.512
22.8400,2.444
22.8800,2.514
22.9200,2.508
22.9600,2.418
23.0000,2.541
23.0400,2.446
23.0800,2.397
23.1200,2.485
23.1600,2.429
23.2000,2.429
23.2400,2.396
23.2800,2.430
23.3200,2.463
23.3600,2.319
23.4000,2.405
23.4400,2.384
23.4800,2.389
23.5200,2.323
23.5600,2.348
23.6000,2.431
23.6400,2.346
23.6800,2.372
23.7200,2.407
23.7600,2.425
23.8000,2.348
23.8400,2.368
23.8800,2.461
23.9200,2.393
23.9600,2.373
24.0000,2.395
24.0400,2.332
24.0800,2.308
24.1200,2.389
24.1600,2.355
24.2000,2.364
24.2400,2.238
24.2800,2.306
24.3200,2.375
24.3600,2.332
24.4000,2.331
24.4400,2.308
24.4800,2.284
24.5200,2.281
24.5600,2.317
24.6000,2.381
24.6400,2.357
24.6800,2.360
24.7200,2.375
24.7600,2.378
24.8000,2.380
24.8400,2.292
24.8800,2.345
24.9200,2.236
24.9600,2.288
25.0000,2.263
25.0400,2.265
25.0800,2.283
25.1200,2.366
25.1600,2.366
25.2000,2.264
25.2400,2.301
25.2800,2.275
25.3200,2.214
25.3600,2.258
25.4000,2.289
25.4400,2.237
25.4800,2.196
25.5200,2.242
25.5600,2.243
25.6000,2.182
25.6400,2.308
25.6800,2.259
25.7200,2.194
25.7600,2.252
25.8000,2.258
25.8400,2.292
25.8800,2.214
25.9200,2.224
25.9600,2.229
26.0000,2.228
26.0400,2.159
26.0800,2.188
26.1200,2.206
26.1600,2.182
26.2000,2.166
26.2400,2.252
26.2800,2.173
26.3200,2.195
26.3600,2.170
26.4000,2.188
26.4400,2.254
26.4800,2.284
26.5200,2.173
26.5600,2.227
26.6000,2.167
26.6400,2.163
26.6800,2.180
26.7200,2.159
26.7600,2.132
26.8000,2.191
26.8400,2.119
26.8800,2.129
26.9200,2.201
26.9600,2.144
27.0000,2.138
27.0400,2.133
27.0800,2.167
27.1200,2.168
27.1600,2.113
27.2000,2.107
27.2400,2.191
27.2800,2.129
27.3200,2.054
27.3600,2.108
27.4000,2.088
27.4400,2.101
27.4800,2.127
27.5200,2.146
27.5600,2.044
27.6000,2.088
27.6400,2.097
27.6800,2.065
27.7200,2.103
27.7600,2.079
27.8000,2.136
27.8400,2.097
27.8800,2.173
27.9200,2.087
27.9600,2.098
28.0000,2.072
28.0400,2.152
28.0800,2.061
28.1200,2.051
28.1600,2.035
28.2000,2.046
28.2400,2.051
28.2800,2.037
28.3200,2.021
28.3600,2.004
28.4000,2.037
28.4400,2.082
28.4800,2.082
28.5200,2.062
28.5600,2.072
28.6000,2.040
28.6400,2.087
28.6800,2.060
28.7200,2.010
28.7600,2.042
28.8000,2.101
28.8400,2.070
28.8800,2.063
28.9200,2.122
28.9600,2.089
29.0000,2.080
29.0400,2.203
29.0800,2.030
29.1200,2.035
29.1600,2.145
29.2000,2.110
29.2400,2.129
29.2800,2.131
29.3200,2.210
29.3600,2.248
29.4000,2.263
29.4400,2.364
29.4800,2.596
29.5200,2.770
29.5600,3.045
29.6000,3.560
29.6400,4.261
29.6800,5.060
29.7200,6.220
29.7600,7.399
29.8000,7.984
29.8400,8.030
29.8800,7.151
29.9200,5.940
29.9600,4.887
30.0000,4.131
30.0400,3.491
30.0800,3.000
30.1200,2.769
30.1600,2.670
30.2000,2.503
30.2400,2.412
30.2800,2.481
30.3200,2.410
30.3600,2.340
30.4000,2.317
30.4400,2.389
30.4800,2.462
30.5200,2.727
30.5600,2.845
30.6000,3.328
30.6400,3.301
30.6800,3.173
30.7200,2.995
30.7600,2.583
30.8000,2.474
30.8400,2.374
30.8800,2.213
30.9200,2.233
30.9600,2.064
31.0000,2.158
31.0400,2.159
31.0800,2.146
31.1200,2.112
31.1600,2.102
31.2000,2.107
31.2400,2.078
31.2800,2.110
31.3200,2.231
31.3600,2.206
31.4000,2.287
31.4400,2.309
31.4800,2.326
31.5200,2.478
31.5600,2.532
31.6000,2.651
31.6400,2.794
31.6800,3.035
31.7200,3.306
31.7600,3.391
31.8000,3.505
31.8400,3.686
31.8800,3.613
31.9200,3.745
31.9600,4.155
32.0000,4.190
32.0400,4.001
32.0800,3.540
32.1200,3.161
32.1600,2.821
32.2000,2.617
32.2400,2.453
32.2800,2.365
32.3200,2.209
32.3600,2.210
32.4000,2.060
32.4400,2.064
32.4800,2.078
32.5200,1.958
32.5600,1.972
32.6000,1.985
32.6400,1.917
32.6800,1.983
32.7200,1.930
32.7600,1.937
32.8000,1.891
32.8400,1.918
32.8800,1.848
32.9200,1.856
32.9600,1.884
33.0000,1.947
33.0400,1.950
33.0800,1.984
33.1200,1.975
33.1600,2.222
33.2000,2.552
33.2400,3.033
33.2800,3.518
33.3200,3.657
33.3600,3.225
33.4000,2.922
33.4400,2.475
33.4800,2.263
33.5200,2.084
33.5600,2.012
33.6000,2.045
33.6400,1.929
33.6800,1.975
33.7200,1.947
33.7600,1.853
33.8000,1.910
33.8400,1.975
33.8800,2.055
33.9200,2.021
33.9600,1.999
34.0000,2.008
34.0400,2.114
34.0800,2.098
34.1200,2.087
34.1600,2.218
34.2000,2.157
34.2400,2.234
34.2800,2.265
34.3200,2.281
34.3600,2.388
34.4000,2.378
34.4400,2.321
34.4800,2.365
34.5200,2.314
34.5600,2.315
34.6000,2.172
34.6400,2.223
34.6800,2.119
34.7200,2.138
34.7600,2.020
34.8000,1.957
34.8400,1.874
34.8800,1.903
34.9200,1.921
34.9600,1.889
35.0000,1.881
35.0400,1.795
35.0800,1.781
35.1200,1.736
35.1600,1.859
35.2000,1.770
35.2400,1.830
35.2800,1.744
35.3200,1.811
35.3600,1.834
35.4000,1.784
35.4400,1.841
35.4800,1.896
35.5200,1.888
35.5600,1.861
35.6000,1.966
35.6400,1.948
35.6800,1.909
35.7200,1.885
35.7600,1.991
35.8000,2.045
35.8400,2.134
35.8800,2.213
35.9200,2.269
35.9600,2.354
36.0000,2.387
36.0400,2.477
36.0800,2.611
36.1200,2.784
36.1600,2.824
36.2000,2.961
36.2400,3.011
36.2800,3.071
36.3200,2.962
36.3600,2.978
36.4000,2.907
36.4400,2.822
36.4800,2.609
36.5200,2.464
36.5600,2.358
36.6000,2.220
36.6400,2.289
36.6800,2.215
36.7200,2.082
36.7600,2.058
36.8000,2.139
36.8400,2.177
36.8800,2.193
36.9200,2.129
36.9600,2.117
37.0000,2.077
37.0400,2.049
37.0800,2.077
37.1200,1.918
37.1600,1.820
37.2000,1.703
37.2400,1.689
37.2800,1.654
37.3200,1.559
37.3600,1.533
37.4000,1.484
37.4400,1.526
37.4800,1.418
37.5200,1.509
37.5600,1.445
37.6000,1.444
37.6400,1.435
37.6800,1.421
37.7200,1.408
37.7600,1.393
37.8000,1.405
37.8400,1.423
37.8800,1.394
37.9200,1.389
37.9600,1.378
38.0000,1.323
38.0400,1.377
38.0800,1.424
38.1200,1.413
38.1600,1.398
38.2000,1.373
38.2400,1.362
38.2800,1.422
38.3200,1.352
38.3600,1.315
38.4000,1.332
38.4400,1.360
38.4800,1.371
38.5200,1.386
38.5600,1.276
38.6000,1.349
38.6400,1.336
38.6800,1.302
38.7200,1.308
38.7600,1.280
38.8000,1.280
38.8400,1.296
38.8800,1.365
38.9200,1.318
38.9600,1.292
39.0000,1.302
39.0400,1.291
39.0800,1.238
39.1200,1.338
39.1600,1.265
39.2000,1.246
39.2400,1.291
39.2800,1.344
39.3200,1.309
39.3600,1.312
39.4000,1.271
39.4400,1.296
39.4800,1.275
39.5200,1.250
39.5600,1.335
39.6000,1.300
39.6400,1.224
39.6800,1.220
39.7200,1.198
39.7600,1.248
39.8000,1.246
39.8400,1.247
39.8800,1.204
39.9200,1.188
39.9600,1.206
40.0000,1.179
40.0400,1.191
40.0800,1.187
40.1200,1.160
40.1600,1.129
40.2000,1.192
40.2400,1.158
40.2800,1.194
40.3200,1.163
40.3600,1.249
40.4000,1.151
40.4400,1.222
40.4800,1.155
40.5200,1.168
40.5600,1.165
40.6000,1.180
40.6400,1.111
40.6800,1.150
40.7200,1.162
40.7600,1.165
40.8000,1.171
40.8400,1.203
40.8800,1.203
40.9200,1.162
40.9600,1.183
41.0000,1.108
41.0400,1.207
41.0800,1.189
41.1200,1.145
41.1600,1.177
41.2000,1.201
41.2400,1.142
41.2800,1.123
41.3200,1.187
41.3600,1.171
41.4000,1.176
41.4400,1.131
41.4800,1.117
41.5200,1.126
41.5600,1.076
41.6000,1.087
41.6400,1.110
41.6800,1.151
41.7200,1.141
41.7600,1.116
41.8000,1.107
41.8400,1.077
41.8800,1.130
41.9200,1.127
41.9600,1.092
42.0000,1.073
42.0400,1.052
42.0800,1.115
42.1200,1.055
42.1600,1.149
42.2000,1.109
42.2400,1.122
42.2800,1.107
42.3200,1.097
42.3600,1.124
42.4000,1.109
42.4400,1.121
42.4800,1.095
42.5200,1.084
42.5600,1.119
42.6000,1.091
42.6400,1.113
42.6800,1.063
42.7200,1.039
42.7600,1.141
42.8000,1.098
42.8400,1.081
42.8800,1.048
42.9200,1.110
42.9600,1.077
43.0000,1.079
43.0400,1.055
43.0800,1.066
43.1200,1.111
43.1600,1.041
43.2000,1.091
43.2400,1.039
43.2800,1.075
43.3200,1.060
43.3600,1.107
43.4000,1.084
43.4400,1.049
43.4800,1.063
43.5200,1.042
43.5600,1.080
43.6000,1.044
43.6400,1.054
43.6800,1.154
43.7200,1.122
43.7600,1.158
43.8000,1.219
43.8400,1.334
43.8800,1.278
43.9200,1.250
43.9600,1.325
44.0000,1.294
44.0400,1.141
44.0800,1.187
44.1200,1.150
44.1600,1.103
44.2000,1.081
44.2400,1.116
44.2800,1.133
44.3200,1.106
44.3600,1.108
44.4000,1.070
44.4400,1.049
44.4800,1.049
44.5200,1.106
44.5600,1.047
44.6000,1.087
44.6400,1.090
44.6800,1.126
44.7200,1.157
44.7600,1.201
44.8000,1.270
44.8400,1.404
44.8800,1.582
44.9200,1.539
44.9600,1.451
45.0000,1.365
45.0400,1.323
45.0800,1.134
45.1200,1.157
45.1600,1.077
45.2000,1.101
45.2400,1.052
45.2800,1.074
45.3200,1.041
45.3600,0.985
45.4000,1.006
45.4400,0.979
45.4800,0.970
45.5200,0.998
45.5600,1.012
45.6000,0.986
45.6400,1.030
45.6800,0.989
45.7200,0.967
45.7600,1.021
45.8000,1.002
45.8400,0.987
45.8800,0.985
45.9200,0.944
45.9600,0.944
46.0000,1.049
46.0400,1.004
46.0800,0.956
46.1200,0.970
46.1600,0.974
46.2000,0.982
46.2400,0.930
46.2800,1.027
46.3200,0.962
46.3600,0.981
46.4000,0.931
46.4400,0.944
46.4800,0.918
46.5200,0.940
46.5600,1.028
46.6000,1.030
46.6400,0.981
46.6800,0.995
46.7200,0.970
46.7600,0.951
46.8000,0.928
46.8400,1.003
46.8800,0.937
46.9200,0.958
46.9600,1.006
47.0000,0.963
47.0400,0.980
47.0800,1.035
47.1200,0.936
47.1600,0.965
47.2000,1.055
47.2400,0.995
47.2800,1.012
47.3200,1.045
47.3600,1.017
47.4000,1.075
47.4400,1.104
47.4800,1.142
47.5200,1.092
47.5600,1.131
47.6000,1.211
47.6400,1.171
47.6800,1.229
47.7200,1.235
47.7600,1.275
47.8000,1.365
47.8400,1.372
47.8800,1.327
47.9200,1.298
47.9600,1.237
48.0000,1.162
48.0400,1.147
48.0800,1.129
48.1200,1.054
48.1600,1.107
48.2000,0.993
48.2400,0.966
48.2800,0.974
48.3200,0.927
48.3600,0.955
48.4000,0.977
48.4400,0.910
48.4800,0.926
48.5200,0.864
48.5600,0.895
48.6000,0.882
48.6400,0.868
48.6800,0.920
48.7200,0.938
48.7600,0.892
48.8000,0.887
48.8400,0.879
48.8800,0.910
48.9200,0.835
48.9600,0.840
49.0000,0.944
49.0400,0.818
49.0800,0.882
49.1200,0.822
49.1600,0.816
49.2000,0.856
49.2400,0.807
49.2800,0.897
49.3200,0.867
49.3600,0.845
49.4000,0.871
49.4400,0.916
49.4800,0.879
49.5200,0.867
49.5600,0.796
49.6000,0.849
49.6400,0.858
49.6800,0.814
49.7200,0.802
49.7600,0.846
49.8000,0.863
49.8400,0.830
49.8800,0.890
49.9200,0.849
49.9600,0.823
50.0000,0.856
50.0400,0.860
50.0800,0.878
50.1200,0.914
50.1600,0.860
50.2000,0.938
50.2400,0.978
50.2800,1.016
50.3200,1.092
50.3600,1.156
50.4000,1.272
50.4400,1.348
50.4800,1.457
50.5200,1.599
50.5600,1.585
50.6000,1.588
50.6400,1.580
50.6800,1.502
50.7200,1.420
50.7600,1.296
50.8000,1.271
50.8400,1.110
50.8800,1.005
50.9200,0.992
50.9600,0.930
51.0000,0.877
51.0400,0.871
51.0800,0.845
51.1200,0.806
51.1600,0.795
51.2000,0.833
51.2400,0.836
51.2800,0.802
51.3200,0.816
51.3600,0.775
51.4000,0.787
51.4400,0.819
51.4800,0.787
51.5200,0.783
51.5600,0.823
51.6000,0.807
51.6400,0.817
51.6800,0.770
51.7200,0.829
51.7600,0.758
51.8000,0.802
51.8400,0.788
51.8800,0.761
51.9200,0.818
51.9600,0.782
52.0000,0.762
52.0400,0.764
52.0800,0.712
52.1200,0.735
52.1600,0.746
52.2000,0.781
52.2400,0.785
52.2800,0.767
52.3200,0.736
52.3600,0.758
52.4000,0.736
52.4400,0.775
52.4800,0.774
52.5200,0.692
52.5600,0.757
52.6000,0.745
52.6400,0.767
52.6800,0.720
52.7200,0.782
52.7600,0.728
52.8000,0.727
52.8400,0.764
52.8800,0.739
52.9200,0.760
52.9600,0.746
53.0000,0.739
53.0400,0.774
53.0800,0.741
53.1200,0.712
53.1600,0.727
53.2000,0.727
53.2400,0.687
53.2800,0.704
53.3200,0.685
53.3600,0.717
53.4000,0.695
53.4400,0.674
53.4800,0.714
53.5200,0.723
53.5600,0.728
53.6000,0.730
53.6400,0.717
53.6800,0.730
53.7200,0.728
53.7600,0.759
53.8000,0.705
53.8400,0.702
53.8800,0.696
53.9200,0.739
53.9600,0.691
54.0000,0.750
54.0400,0.678
54.0800,0.657
54.1200,0.702
54.1600,0.669
54.2000,0.667
54.2400,0.699
54.2800,0.692
54.3200,0.748
54.3600,0.644
54.4000,0.709
54.4400,0.681
54.4800,0.715
54.5200,0.728
54.5600,0.737
54.6000,0.721
54.6400,0.716
54.6800,0.655
54.7200,0.698
54.7600,0.706
54.8000,0.714
54.8400,0.669
54.8800,0.723
54.9200,0.730
54.9600,0.739
55.0000,0.700
55.0400,0.726
55.0800,0.744
55.1200,0.731
55.1600,0.737
55.2000,0.711
55.2400,0.812
55.2800,0.973
55.3200,1.132
55.3600,0.839
55.4000,0.807
55.4400,0.833
55.4800,0.935
55.5200,0.777
55.5600,0.754
55.6000,0.787
55.6400,0.739
55.6800,0.758
55.7200,0.744
55.7600,0.753
55.8000,0.742
55.8400,0.731
55.8800,0.766
55.9200,0.781
55.9600,0.727
56.0000,0.799
56.0400,0.760
56.0800,0.780
56.1200,0.770
56.1600,0.772
56.2000,0.792
56.2400,0.852
56.2800,0.791
56.3200,0.856
56.3600,0.871
56.4000,0.887
56.4400,0.937
56.4800,0.989
56.5200,1.044
56.5600,1.058
56.6000,1.057
56.6400,1.079
56.6800,1.082
56.7200,1.073
56.7600,1.052
56.8000,1.049
56.8400,1.002
56.8800,0.987
56.9200,0.955
56.9600,0.941
57.0000,0.936
57.0400,0.950
57.0800,0.955
57.1200,0.963
57.1600,1.015
57.2000,1.066
57.2400,1.073
57.2800,1.165
57.3200,1.176
57.3600,1.281
57.4000,1.219
57.4400,1.260
57.4800,1.234
57.5200,1.153
57.5600,1.092
57.6000,0.959
57.6400,0.947
57.6800,0.931
57.7200,0.819
57.7600,0.839
57.8000,0.785
57.8400,0.729
57.8800,0.713
57.9200,0.743
57.9600,0.723
58.0000,0.656
58.0400,0.677
58.0800,0.703
58.1200,0.659
58.1600,0.682
58.2000,0.681
58.2400,0.634
58.2800,0.672
58.3200,0.656
58.3600,0.658
58.4000,0.656
58.4400,0.603
58.4800,0.645
58.5200,0.668
58.5600,0.620
58.6000,0.629
58.6400,0.627
58.6800,0.644
58.7200,0.648
58.7600,0.622
58.8000,0.597
58.8400,0.667
58.8800,0.595
58.9200,0.642
58.9600,0.622
59.0000,0.620
59.0400,0.636
59.0800,0.619
59.1200,0.602
59.1600,0.606
59.2000,0.640
59.2400,0.630
59.2800,0.636
59.3200,0.580
59.3600,0.622
59.4000,0.598
59.4400,0.614
59.4800,0.644
59.5200,0.638
59.5600,0.661
59.6000,0.620
59.6400,0.633
59.6800,0.618
59.7200,0.592
59.7600,0.622
59.8000,0.656
59.8400,0.610
59.8800,0.630
59.9200,0.570
59.9600,0.631
60.0000,0.617
60.0400,0.574
60.0800,0.604
60.1200,0.578
60.1600,0.580
60.2000,0.619
60.2400,0.607
60.2800,0.635
60.3200,0.569
60.3600,0.609
60.4000,0.588
60.4400,0.639
60.4800,0.590
60.5200,0.638
60.5600,0.589
60.6000,0.598
60.6400,0.573
60.6800,0.575
60.7200,0.605
60.7600,0.641
60.8000,0.599
60.8400,0.545
60.8800,0.606
60.9200,0.633
60.9600,0.632
61.0000,0.625
61.0400,0.626
61.0800,0.613
61.1200,0.614
61.1600,0.592
61.2000,0.579
61.2400,0.632
61.2800,0.597
61.3200,0.576
61.3600,0.590
61.4000,0.633
61.4400,0.628
61.4800,0.653
61.5200,0.640
61.5600,0.685
61.6000,0.691
61.6400,0.775
61.6800,0.798
61.7200,0.791
61.7600,0.745
61.8000,0.767
61.8400,0.800
61.8800,0.842
61.9200,0.878
61.9600,0.829
62.0000,0.844
62.0400,0.918
62.0800,0.866
62.1200,0.891
62.1600,0.909
62.2000,0.903
62.2400,0.878
62.2800,0.905
62.3200,0.869
62.3600,0.904
62.4000,0.927
62.4400,0.882
62.4800,0.960
62.5200,0.900
62.5600,0.895
62.6000,0.879
62.6400,0.873
62.6800,0.815
62.7200,0.840
62.7600,0.836
62.8000,0.799
62.8400,0.754
62.8800,0.797
62.9200,0.764
62.9600,0.770
63.0000,0.772
63.0400,0.751
63.0800,0.734
63.1200,0.729
63.1600,0.736
63.2000,0.720
63.2400,0.699
63.2800,0.655
63.3200,0.728
63.3600,0.691
63.4000,0.676
63.4400,0.625
63.4800,0.658
63.5200,0.631
63.5600,0.655
63.6000,0.662
63.6400,0.644
63.6800,0.621
63.7200,0.639
63.7600,0.633
63.8000,0.613
63.8400,0.681
63.8800,0.597
63.9200,0.634
63.9600,0.620
64.0000,0.621
64.0400,0.590
64.0800,0.589
64.1200,0.576
64.1600,0.610
64.2000,0.587
64.2400,0.634
64.2800,0.602
64.3200,0.637
64.3600,0.626
64.4000,0.656
64.4400,0.632
64.4800,0.634
64.5200,0.642
64.5600,0.644
64.6000,0.641
64.6400,0.673
64.6800,0.649
64.7200,0.692
64.7600,0.646
64.8000,0.656
64.8400,0.644
64.8800,0.616
64.9200,0.621
64.9600,0.637
65.0000,0.641
65.0400,0.642
65.0800,0.609
65.1200,0.640
65.1600,0.639
65.2000,0.603
65.2400,0.649
65.2800,0.648
65.3200,0.661
65.3600,0.659
65.4000,0.672
65.4400,0.669
65.4800,0.696
65.5200,0.672
65.5600,0.667
65.6000,0.680
65.6400,0.667
65.6800,0.659
65.7200,0.663
65.7600,0.669
65.8000,0.682
65.8400,0.728
65.8800,0.682
65.9200,0.728
65.9600,0.767
66.0000,0.750
66.0400,0.751
66.0800,0.741
66.1200,0.740
66.1600,0.756
66.2000,0.791
66.2400,0.793
66.2800,0.798
66.3200,0.809
66.3600,0.874
66.4000,0.833
66.4400,0.891
66.4800,0.848
66.5200,0.868
66.5600,0.912
66.6000,0.963
66.6400,0.889
66.6800,0.961
66.7200,1.009
66.7600,0.958
66.8000,0.956
66.8400,0.961
66.8800,0.978
66.9200,1.017
66.9600,0.998
67.0000,1.088
67.0400,1.052
67.0800,1.104
67.1200,1.043
67.1600,1.106
67.2000,1.081
67.2400,1.101
67.2800,1.249
67.3200,1.242
67.3600,1.241
67.4000,1.308
67.4400,1.307
67.4800,1.351
67.5200,1.322
67.5600,1.421
67.6000,1.440
67.6400,1.454
67.6800,1.502
67.7200,1.518
67.7600,1.579
67.8000,1.657
67.8400,1.642
67.8800,1.744
67.9200,1.768
67.9600,1.811
68.0000,1.878
68.0400,1.914
68.0800,1.907
68.1200,2.014
68.1600,2.002
68.2000,2.062
68.2400,2.183
68.2800,2.162
68.3200,2.236
68.3600,2.312
68.4000,2.318
68.4400,2.483
68.4800,2.623
68.5200,2.693
68.5600,2.749
68.6000,3.058
68.6400,3.416
68.6800,4.048
68.7200,5.223
68.7600,6.503
68.8000,7.823
68.8400,8.057
68.8800,8.249
68.9200,9.279
68.9600,12.482
69.0000,19.922
69.0400,44.442
69.0800,214.114
69.1200,557.528
69.1600,445.683
69.2000,124.448
69.2400,53.348
69.2800,136.362
69.3200,293.498
69.3600,221.510
69.4000,62.704
69.4400,20.346
69.4800,11.922
69.5200,8.742
69.5600,7.002
69.6000,5.892
69.6400,5.182
69.6800,4.609
69.7200,4.202
69.7600,3.878
69.8000,3.530
69.8400,3.255
69.8800,3.200
69.9200,3.004
69.9600,2.713
70.0000,2.718
70.0400,2.717
70.0800,2.545
70.1200,2.376
70.1600,2.302
70.2000,2.169
70.2400,2.108
70.2800,2.048
70.3200,1.960
70.3600,1.868
70.4000,1.974
70.4400,1.823
70.4800,1.766
70.5200,1.699
70.5600,1.570
70.6000,1.691
70.6400,1.526
70.6800,1.485
70.7200,1.455
70.7600,1.422
70.8000,1.419
70.8400,1.417
70.8800,1.325
70.9200,1.296
70.9600,1.212
71.0000,1.241
71.0400,1.132
71.0800,1.110
71.1200,1.150
71.1600,1.134
71.2000,1.061
71.2400,0.998
71.2800,1.040
71.3200,1.038
71.3600,0.945
71.4000,0.952
71.4400,0.958
71.4800,0.920
71.5200,0.958
71.5600,0.906
71.6000,0.839
71.6400,0.854
71.6800,0.898
71.7200,0.825
71.7600,0.832
71.8000,0.796
71.8400,0.740
71.8800,0.724
71.9200,0.756
71.9600,0.749
72.0000,0.754
72.0400,0.690
72.0800,0.747
72.1200,0.689
72.1600,0.676
72.2000,0.724
72.2400,0.685
72.2800,0.671
72.3200,0.658
72.3600,0.688
72.4000,0.686
72.4400,0.688
72.4800,0.651
72.5200,0.622
72.5600,0.647
72.6000,0.667
72.6400,0.600
72.6800,0.624
72.7200,0.609
72.7600,0.580
72.8000,0.619
72.8400,0.588
72.8800,0.571
72.9200,0.562
72.9600,0.564
73.0000,0.580
73.0400,0.533
73.0800,0.541
73.1200,0.543
73.1600,0.551
73.2000,0.525
73.2400,0.554
73.2800,0.479
73.3200,0.490
73.3600,0.508
73.4000,0.470
73.4400,0.494
73.4800,0.496
73.5200,0.499
73.5600,0.463
73.6000,0.446
73.6400,0.451
73.6800,0.489
73.7200,0.461
73.7600,0.436
73.8000,0.473
73.8400,0.475
73.8800,0.446
73.9200,0.477
73.9600,0.423
74.0000,0.446
74.0400,0.418
74.0800,0.459
74.1200,0.415
74.1600,0.428
74.2000,0.440
74.2400,0.467
74.2800,0.416
74.3200,0.417
74.3600,0.417
74.4000,0.402
74.4400,0.383
74.4800,0.403
74.5200,0.379
74.5600,0.385
74.6000,0.375
74.6400,0.371
74.6800,0.399
74.7200,0.378
74.7600,0.380
74.8000,0.395
74.8400,0.391
74.8800,0.368
74.9200,0.365
74.9600,0.368
75.0000,0.385
75.0400,0.402
75.0800,0.375
75.1200,0.367
75.1600,0.384
75.2000,0.359
75.2400,0.421
75.2800,0.355
75.3200,0.356
75.3600,0.392
75.4000,0.389
75.4400,0.365
75.4800,0.370
75.5200,0.363
75.5600,0.340
75.6000,0.385
75.6400,0.406
75.6800,0.359
75.7200,0.368
75.7600,0.376
75.8000,0.379
75.8400,0.353
75.8800,0.356
75.9200,0.360
75.9600,0.337
76.0000,0.323
76.0400,0.338
76.0800,0.320
76.1200,0.349
76.1600,0.377
76.2000,0.324
76.2400,0.354
76.2800,0.368
76.3200,0.364
76.3600,0.366
76.4000,0.341
76.4400,0.378
76.4800,0.371
76.5200,0.339
76.5600,0.340
76.6000,0.345
76.6400,0.393
76.6800,0.372
76.7200,0.384
76.7600,0.361
76.8000,0.341
76.8400,0.353
76.8800,0.327
76.9200,0.350
76.9600,0.351
77.0000,0.361
77.0400,0.350
77.0800,0.359
77.1200,0.343
77.1600,0.333
77.2000,0.364
77.2400,0.362
77.2800,0.371
77.3200,0.337
77.3600,0.370
77.4000,0.375
77.4400,0.352
77.4800,0.377
77.5200,0.350
77.5600,0.376
77.6000,0.357
77.6400,0.332
77.6800,0.380
77.7200,0.367
77.7600,0.374
77.8000,0.355
77.8400,0.380
77.8800,0.375
77.9200,0.390
77.9600,0.379
78.0000,0.351
78.0400,0.352
78.0800,0.393
78.1200,0.372
78.1600,0.337
78.2000,0.337
78.2400,0.370
78.2800,0.346
78.3200,0.358
78.3600,0.330
78.4000,0.322
78.4400,0.336
78.4800,0.313
78.5200,0.320
78.5600,0.352
78.6000,0.357
78.6400,0.348
78.6800,0.330
78.7200,0.351
78.7600,0.339
78.8000,0.329
78.8400,0.327
78.8800,0.325
78.9200,0.316
78.9600,0.313
79.0000,0.341
79.0400,0.310
79.0800,0.300
79.1200,0.335
79.1600,0.336
79.2000,0.327
79.2400,0.334
79.2800,0.359
79.3200,0.328
79.3600,0.370
79.4000,0.363
79.4400,0.375
79.4800,0.418
79.5200,0.390
79.5600,0.377
79.6000,0.345
79.6400,0.351
79.6800,0.392
79.7200,0.361
79.7600,0.344
79.8000,0.371
79.8400,0.352
79.8800,0.388
79.9200,0.346
79.9600,0.349
80.0000,0.301
